Data from Subt10__0__15-36-15-766.txt Node

Date: Thu Apr 21 15:36:15 CEST 2022
User: jeppe
Spectrometer: FLMS05814
Trigger mode: 0
Integration Time (sec): 1,000000E-1
Scans to average: 1
Electric dark correction enabled: true
Nonlinearity correction enabled: false
Boxcar width: 0
XAxis mode: Wavelengths
Number of Pixels in Spectrum: 2048
>>>>>Begin Spectral Data<<<<<
188,012	28,09
188,47	28,09
188,927	28,09
189,385	-63,19
189,842	-49,15
190,3	-21,06
190,757	70,22
191,215	25,75
191,672	-49,15
192,129	-14,04
192,586	7,02
193,044	56,17
193,501	-110,01
193,958	58,51
194,415	51,49
194,872	-53,83
195,329	7,02
195,787	-42,13
196,244	4,68
196,7	-0
197,157	9,36
197,614	28,09
198,071	-18,72
198,528	65,53
198,985	114,69
199,441	63,19
199,898	35,11
200,355	-63,19
200,812	86,6
201,268	159,16
201,725	70,22
202,181	98,3
202,638	60,85
203,094	-49,15
203,551	81,92
204,007	37,45
204,463	-0
204,92	107,66
205,376	14,04
205,832	14,04
206,288	21,06
206,744	21,06
207,201	18,72
207,657	84,26
208,113	88,94
208,569	14,04
209,025	67,88
209,481	91,28
209,937	63,19
210,392	4,68
210,848	18,72
211,304	72,56
211,76	86,6
212,215	-2,34
212,671	74,9
213,127	81,92
213,582	77,24
214,038	149,79
214,494	44,47
214,949	-2,34
215,404	131,07
215,86	84,26
216,315	77,24
216,771	91,28
217,226	112,35
217,681	49,15
218,136	-30,43
218,592	140,43
219,047	58,51
219,502	39,79
219,957	-30,43
220,412	11,7
220,867	86,6
221,322	88,94
221,777	124,05
222,232	39,79
222,687	53,83
223,142	32,77
223,596	46,81
224,051	173,2
224,506	84,26
224,96	98,3
225,415	70,22
225,87	152,13
226,324	88,94
226,779	25,75
227,233	-32,77
227,688	37,45
228,142	70,22
228,597	4,68
229,051	112,35
229,505	60,85
229,959	77,24
230,414	121,71
230,868	65,53
231,322	72,56
231,776	121,71
232,23	60,85
232,684	138,09
233,138	-30,43
233,592	91,28
234,046	-44,47
234,5	84,26
234,954	131,07
235,408	70,22
235,861	21,06
236,315	-79,58
236,769	77,24
237,222	100,64
237,676	-18,72
238,13	110,01
238,583	98,3
239,037	-4,68
239,49	70,22
239,944	72,56
240,397	145,11
240,85	-0
241,304	168,52
241,757	79,58
242,21	46,81
242,663	102,98
243,117	72,56
243,57	-67,88
244,023	-4,68
244,476	30,43
244,929	110,01
245,382	58,51
245,835	16,38
246,288	196,61
246,741	77,24
247,193	-0
247,646	46,81
248,099	117,03
248,552	7,02
249,004	-28,09
249,457	77,24
249,909	44,47
250,362	88,94
250,814	187,24
251,267	49,15
251,719	70,22
252,172	14,04
252,624	42,13
253,076	44,47
253,529	100,64
253,981	46,81
254,433	79,58
254,885	74,9
255,337	184,9
255,79	121,71
256,242	119,37
256,694	135,75
257,146	2,34
257,598	42,13
258,049	25,75
258,501	105,32
258,953	126,39
259,405	44,47
259,857	88,94
260,308	56,17
260,76	-81,92
261,212	140,43
261,663	-23,41
262,115	112,35
262,566	44,47
263,018	166,18
263,469	152,13
263,92	121,71
264,372	67,88
264,823	156,82
265,274	49,15
265,726	65,53
266,177	119,37
266,628	-2,34
267,079	63,19
267,53	180,22
267,981	53,83
268,432	51,49
268,883	-4,68
269,334	32,77
269,785	49,15
270,236	-18,72
270,687	65,53
271,137	112,35
271,588	102,98
272,039	-11,7
272,489	114,69
272,94	91,28
273,391	128,73
273,841	25,75
274,292	163,84
274,742	46,81
275,192	86,6
275,643	-16,38
276,093	18,72
276,543	46,81
276,994	72,56
277,444	-37,45
277,894	98,3
278,344	63,19
278,794	81,92
279,244	53,83
279,694	142,77
280,144	65,53
280,594	-9,36
281,044	110,01
281,494	51,49
281,944	86,6
282,394	72,56
282,843	67,88
283,293	93,62
283,743	154,48
284,192	-72,56
284,642	30,43
285,091	229,37
285,541	166,18
285,99	32,77
286,44	91,28
286,889	102,98
287,338	107,66
287,788	28,09
288,237	102,98
288,686	124,05
289,135	100,64
289,584	121,71
290,034	110,01
290,483	77,24
290,932	37,45
291,381	93,62
291,83	53,83
292,278	102,98
292,727	49,15
293,176	86,6
293,625	208,31
294,074	168,52
294,522	264,48
294,971	444,7
295,42	645,99
295,868	952,6
296,317	1350,49
296,765	1453,47
297,214	1530,71
297,662	1322,4
298,11	1380,92
298,559	1280,27
299,007	835,57
299,455	547,69
299,903	341,72
300,352	252,78
300,8	248,1
301,248	156,82
301,696	168,52
302,144	210,65
302,592	142,77
303,04	70,22
303,488	95,96
303,936	189,58
304,383	234,05
304,831	180,22
305,279	238,73
305,727	187,24
306,174	273,84
306,622	278,52
307,069	203,63
307,517	374,49
307,964	250,44
308,412	344,06
308,859	533,64
309,306	884,72
309,754	1294,32
310,201	1823,28
310,648	2354,58
311,096	3148,02
311,543	4292,54
311,99	5959
312,437	7335,24
312,884	8435,29
313,331	10164,95
313,778	13823,2
314,225	16524,18
314,672	16908,03
315,118	15997,56
315,565	18345,12
316,012	24851,81
316,459	30607,19
316,905	27555,13
317,352	18277,24
317,798	8585,08
318,245	4470,42
318,691	2410,75
319,138	1299
319,584	706,84
320,031	409,59
320,477	313,63
320,923	440,02
321,37	390,87
321,816	407,25
322,262	409,59
322,708	308,95
323,154	376,83
323,6	407,25
324,046	397,89
324,492	409,59
324,938	465,77
325,384	627,26
325,83	917,49
326,276	1291,98
326,721	1813,92
327,167	2651,83
327,613	3101,21
328,058	3419,52
328,504	3803,37
328,949	4397,87
329,395	4648,3
329,84	4219,99
330,286	3803,37
330,731	4091,26
331,177	5046,19
331,622	5940,28
332,067	6588,61
332,512	7478,01
332,957	9027,45
333,403	11040,31
333,848	14277,27
334,293	18274,9
334,738	22995,76
335,183	27805,56
335,628	34703,12
336,072	44191,65
336,517	54270
336,962	62026,54
337,407	62859,77
337,852	62915,94
338,296	62834,02
338,741	53289,32
339,185	21352,71
339,63	10457,51
340,074	5570,48
340,519	2733,75
340,963	1270,91
341,408	812,17
341,852	704,5
342,296	727,91
342,741	718,54
343,185	664,71
343,629	610,88
344,073	737,27
344,517	837,91
344,961	1053,24
345,405	1097,71
345,849	1142,18
346,293	1341,13
346,737	1610,29
347,181	1942,64
347,624	2539,48
348,068	3007,59
348,512	3485,06
348,955	4533,62
349,399	5495,58
349,843	6839,05
350,286	9004,04
350,73	10403,68
351,173	10965,41
351,617	11508,41
352,06	13111,68
352,503	15934,37
352,946	19789,23
353,39	26078,25
353,833	34106,29
354,276	37514,11
354,719	36308,73
355,162	29963,54
355,605	27749,39
356,048	30082,91
356,491	35629,98
356,934	44385,92
357,377	53719,98
357,82	61432,04
358,262	62927,64
358,705	59140,66
359,148	40020,82
359,59	18548,75
360,033	9586,83
360,475	5137,48
360,918	2867,16
361,36	1689,87
361,803	1238,14
362,245	976
362,688	1071,97
363,13	1128,14
363,572	1324,74
364,014	1509,65
364,456	1991,8
364,899	2340,54
365,341	2429,48
365,783	2256,28
366,225	2380,32
366,667	2822,69
367,108	3784,65
367,55	4788,74
367,992	5441,75
368,434	4994,7
368,876	4592,13
369,317	4629,58
369,759	5050,88
370,201	6118,16
370,642	8322,94
371,084	10991,16
371,525	13116,36
371,966	12938,48
372,408	10696,25
372,849	8760,63
373,29	8615,51
373,732	9444,06
374,173	11236,91
374,614	13968,32
375,055	17130,38
375,496	22382,54
375,937	27344,48
376,378	25759,94
376,819	19503,68
377,26	12875,29
377,701	10745,4
378,142	10759,44
378,583	11239,25
379,023	13235,73
379,464	15882,88
379,905	19814,98
380,345	25474,39
380,786	31999,8
381,226	30689,1
381,667	22427,01
382,107	11122,23
382,548	5310,68
382,988	3344,63
383,428	2385,01
383,868	2097,12
384,309	2328,83
384,749	2672,89
385,189	3258,03
385,629	4215,3
386,069	4865,97
386,509	4816,82
386,949	4830,87
387,389	4837,89
387,829	5093,01
388,268	5554,09
388,708	5968,37
389,148	6157,95
389,588	6043,26
390,027	5909,85
390,467	5055,56
390,906	4007
391,346	3173,77
391,785	2935,03
392,225	2881,2
392,664	3054,4
393,103	3574
393,543	4500,85
393,982	5668,78
394,421	7655,89
394,86	8402,52
395,299	7559,93
395,738	5577,5
396,177	4109,98
396,616	3555,27
397,055	3651,24
397,494	3698,05
397,933	4070,19
398,372	4697,46
398,81	5558,77
399,249	6930,33
399,688	8793,39
400,126	10707,95
400,565	10832
401,004	7964,84
401,442	4830,87
401,88	3260,37
402,319	2759,49
402,757	2642,46
403,195	2663,53
403,634	2918,65
404,072	3576,34
404,51	4163,81
404,948	5088,32
405,386	6267,95
405,824	7620,78
406,262	9102,34
406,7	8461,04
407,138	5949,64
407,576	3272,07
408,014	1944,99
408,452	1556,46
408,889	1497,94
409,327	1554,12
409,765	1811,57
410,202	1926,26
410,64	1582,2
411,077	1294,32
411,515	999,41
411,952	1095,37
412,389	1177,29
412,827	1266,23
413,264	1610,29
413,701	1856,04
414,138	2469,27
414,575	3077,8
415,013	3098,87
415,45	2562,89
415,887	2249,25
416,324	2478,63
416,76	2836,73
417,197	2661,19
417,634	1994,14
418,071	1832,64
418,508	1928,6
418,944	2202,44
419,381	2876,52
419,818	3541,23
420,254	4994,7
420,691	5694,52
421,127	5228,76
421,563	3618,47
422	2209,47
422,436	1610,29
422,872	1399,64
423,309	1249,85
423,745	1273,25
424,181	1299
424,617	1509,65
425,053	1591,56
425,489	1788,17
425,925	2188,4
426,361	2942,05
426,797	3637,19
427,233	4454,04
427,668	4533,62
428,104	3574
428,54	2174,36
428,975	1212,4
429,411	905,79
429,847	957,28
430,282	894,08
430,717	1013,45
431,153	1146,86
431,588	1083,67
432,024	1123,46
432,459	1128,14
432,894	1273,25
433,329	1521,35
433,764	2066,69
434,199	2469,27
434,634	2944,39
435,069	2885,88
435,504	2518,42
435,939	1949,67
436,374	1385,6
436,809	1100,05
437,244	716,2
437,678	493,85
438,113	547,69
438,548	437,68
438,982	449,38
439,417	524,28
439,851	463,43
440,286	711,52
440,72	671,73
441,154	812,17
441,589	1027,5
442,023	1259,21
442,457	1186,65
442,891	880,04
443,326	685,78
443,76	503,22
444,194	397,89
444,628	421,3
445,062	386,19
445,495	493,85
445,929	540,66
446,363	524,28
446,797	554,71
447,23	648,33
447,664	791,1
448,098	858,98
448,531	905,79
448,965	1254,53
449,398	1425,39
449,832	1268,57
450,265	924,51
450,698	676,41
451,132	610,88
451,565	774,72
451,998	795,78
452,431	788,76
452,864	638,97
453,297	599,18
453,73	580,45
454,163	634,29
454,596	510,24
455,029	564,07
455,462	610,88
455,895	737,27
456,327	866
456,76	781,74
457,193	908,13
457,625	1170,27
458,058	1156,22
458,49	1011,11
458,923	650,67
459,355	535,98
459,787	507,9
460,22	397,89
460,652	493,85
461,084	599,18
461,516	517,26
461,948	397,89
462,381	514,92
462,813	322,99
463,245	414,27
463,676	524,28
464,108	711,52
464,54	592,16
464,972	734,93
465,404	760,67
465,835	821,53
466,267	793,44
466,699	699,82
467,13	767,7
467,562	734,93
467,993	660,03
468,424	421,3
468,856	250,44
469,287	386,19
469,718	322,99
470,15	393,21
470,581	367,46
471,012	517,26
471,443	418,96
471,874	622,58
472,305	498,53
472,736	676,41
473,167	575,77
473,598	571,09
474,028	322,99
474,459	411,93
474,89	250,44
475,32	252,78
475,751	311,29
476,182	365,12
476,612	306,61
477,043	269,16
477,473	315,97
477,903	388,53
478,334	334,7
478,764	498,53
479,194	458,74
479,624	442,36
480,054	454,06
480,484	503,22
480,914	657,69
481,344	671,73
481,774	800,46
482,204	964,3
482,634	660,03
483,064	615,56
483,494	517,26
483,923	496,19
484,353	451,72
484,782	468,11
485,212	423,64
485,642	423,64
486,071	386,19
486,5	351,08
486,93	489,17
487,359	418,96
487,788	468,11
488,217	631,94
488,647	543
489,076	617,9
489,505	582,79
489,934	741,95
490,363	664,71
490,792	709,18
491,221	821,53
491,649	755,99
492,078	826,21
492,507	755,99
492,936	634,29
493,364	561,73
493,793	533,64
494,221	409,59
494,65	386,19
495,078	397,89
495,507	353,42
495,935	362,78
496,363	266,82
496,791	346,4
497,22	561,73
497,648	465,77
498,076	601,52
498,504	613,22
498,932	456,4
499,36	540,66
499,788	482,15
500,216	454,06
500,643	599,18
501,071	447,04
501,499	519,6
501,927	533,64
502,354	472,79
502,782	615,56
503,209	601,52
503,637	585,13
504,064	653,01
504,491	505,56
504,919	674,07
505,346	645,99
505,773	669,39
506,2	704,5
506,628	667,05
507,055	784,08
507,482	784,08
507,909	823,87
508,335	767,7
508,762	669,39
509,189	472,79
509,616	601,52
510,043	554,71
510,469	498,53
510,896	491,51
511,323	285,55
511,749	306,61
512,176	358,1
512,602	283,2
513,028	397,89
513,455	477,47
513,881	503,22
514,307	514,92
514,733	564,07
515,16	589,82
515,586	582,79
516,012	662,37
516,438	606,2
516,864	777,06
517,29	770,04
517,715	690,46
518,141	732,59
518,567	833,23
518,993	863,66
519,418	905,79
519,844	788,76
520,269	741,95
520,695	559,39
521,12	575,77
521,546	461,09
521,971	484,49
522,396	409,59
522,822	535,98
523,247	491,51
523,672	327,67
524,097	395,55
524,522	330,02
524,947	470,45
525,372	402,57
525,797	414,27
526,222	362,78
526,647	519,6
527,071	561,73
527,496	447,04
527,921	554,71
528,345	524,28
528,77	519,6
529,194	545,34
529,619	505,56
530,043	510,24
530,468	381,51
530,892	486,83
531,316	557,05
531,74	535,98
532,164	561,73
532,589	526,62
533,013	559,39
533,437	425,98
533,861	465,77
534,284	451,72
534,708	465,77
535,132	468,11
535,556	585,13
535,98	561,73
536,403	517,26
536,827	725,57
537,25	615,56
537,674	706,84
538,097	798,12
538,521	716,2
538,944	688,12
539,367	669,39
539,791	833,23
540,214	781,74
540,637	669,39
541,06	791,1
541,483	856,64
541,906	788,76
542,329	627,26
542,752	627,26
543,175	674,07
543,598	767,7
544,02	755,99
544,443	774,72
544,866	727,91
545,288	718,54
545,711	770,04
546,133	791,1
546,556	727,91
546,978	784,08
547,4	723,23
547,823	718,54
548,245	772,38
548,667	718,54
549,089	739,61
549,511	613,22
549,933	819,19
550,355	767,7
550,777	931,53
551,199	760,67
551,621	739,61
552,043	758,33
552,465	568,75
552,886	706,84
553,308	493,85
553,729	620,24
554,151	461,09
554,572	505,56
554,994	435,34
555,415	479,81
555,837	557,05
556,258	645,99
556,679	606,2
557,1	617,9
557,521	634,29
557,942	613,22
558,363	601,52
558,784	575,77
559,205	517,26
559,626	229,37
560,047	360,44
560,468	447,04
560,888	510,24
561,309	486,83
561,73	543
562,15	486,83
562,571	418,96
562,991	407,25
563,412	273,84
563,832	306,61
564,252	259,8
564,673	318,31
565,093	374,49
565,513	346,4
565,933	430,66
566,353	374,49
566,773	348,74
567,193	376,83
567,613	376,83
568,033	414,27
568,452	456,4
568,872	465,77
569,292	435,34
569,711	421,3
570,131	388,53
570,551	365,12
570,97	376,83
571,389	402,57
571,809	475,13
572,228	440,02
572,647	433
573,067	557,05
573,486	732,59
573,905	863,66
574,324	1027,5
574,743	1177,29
575,162	1380,92
575,581	1306,02
576	1359,85
576,419	1336,45
576,837	1097,71
577,256	1132,82
577,675	1090,69
578,093	1263,89
578,512	1481,56
578,93	1603,27
579,349	1640,72
579,767	1685,19
580,185	1682,85
580,604	1685,19
581,022	1921,58
581,44	1696,89
581,858	1537,73
582,276	1317,72
582,694	1313,04
583,112	1380,92
583,53	1598,59
583,948	1778,81
584,366	1851,36
584,784	1795,19
585,201	2031,58
585,619	2005,84
586,037	1893,49
586,454	1715,61
586,872	1547,09
587,289	1392,62
587,707	1444,11
588,124	1523,69
588,541	1813,92
588,958	2057,33
589,376	2167,34
589,793	2225,85
590,21	2216,49
590,627	2289,04
591,044	2207,13
591,461	1966,05
591,878	1886,47
592,294	1631,35
592,711	1409
593,128	1299
593,545	1533,05
593,961	1708,59
594,378	1914,56
594,794	1980,09
595,211	1961,37
595,627	1982,43
596,043	2111,16
596,46	2143,93
596,876	1867,75
597,292	1586,88
597,708	1343,47
598,124	1165,59
598,54	1238,14
598,956	1474,54
599,372	1671,14
599,788	1830,3
600,204	1928,6
600,62	1856,04
601,035	2204,78
601,451	2209,47
601,867	2396,71
602,282	2216,49
602,698	1863,07
603,113	1540,07
603,529	1551,78
603,944	1621,99
604,359	1689,87
604,774	1832,64
605,19	1736,68
605,605	1956,69
606,02	1626,67
606,435	1764,76
606,85	1797,53
607,265	1699,23
607,68	1486,24
608,094	1427,73
608,509	1071,97
608,924	854,3
609,338	683,44
609,753	676,41
610,168	678,76
610,582	725,57
610,997	830,89
611,411	685,78
611,825	744,29
612,24	674,07
612,654	753,65
613,068	709,18
613,482	631,94
613,896	613,22
614,31	596,84
614,724	449,38
615,138	482,15
615,552	566,41
615,966	585,13
616,379	620,24
616,793	554,71
617,207	655,35
617,62	753,65
618,034	594,5
618,447	636,63
618,861	662,37
619,274	550,03
619,687	496,19
620,101	468,11
620,514	306,61
620,927	210,65
621,34	330,02
621,753	461,09
622,166	596,84
622,579	664,71
622,992	631,94
623,405	786,42
623,817	711,52
624,23	650,67
624,643	587,47
625,055	767,7
625,468	732,59
625,88	788,76
626,293	561,73
626,705	470,45
627,118	428,32
627,53	388,53
627,942	559,39
628,354	517,26
628,766	528,96
629,179	676,41
629,591	786,42
630,003	936,21
630,414	868,34
630,826	1118,78
631,238	1069,62
631,65	1097,71
632,061	1247,51
632,473	1177,29
632,885	997,07
633,296	1025,15
633,708	877,7
634,119	641,31
634,53	629,6
634,942	669,39
635,353	688,12
635,764	809,83
636,175	1062,6
636,586	1132,82
636,998	1409
637,408	1455,81
637,819	1568,16
638,23	1507,3
638,641	1640,72
639,052	1647,74
639,463	1699,23
639,873	1629,01
640,284	1715,61
640,694	1240,48
641,105	1083,67
641,515	936,21
641,926	1069,62
642,336	1069,62
642,746	1254,53
643,157	1315,38
643,567	1500,28
643,977	1809,23
644,387	2036,27
644,797	2033,93
645,207	2120,53
645,617	2256,28
646,026	2242,23
646,436	2260,96
646,846	2434,16
647,256	2340,54
647,665	2244,57
648,075	1872,43
648,484	1638,37
648,894	1430,07
649,303	1261,55
649,713	1100,05
650,122	1238,14
650,531	1392,62
650,94	1626,67
651,349	2045,63
651,758	2251,6
652,167	2605,02
652,576	2495,01
652,985	2633,1
653,394	2700,98
653,803	2888,22
654,212	2998,23
654,62	2967,8
655,029	2740,77
655,437	2532,46
655,846	2092,44
656,254	1769,44
656,663	1355,17
657,071	1174,95
657,479	1128,14
657,888	1104,73
658,296	1135,16
658,704	1460,49
659,112	2064,35
659,52	2242,23
659,928	2637,78
660,336	2544,16
660,744	2726,72
661,152	2841,41
661,559	2981,84
661,967	2974,82
662,375	3176,11
662,782	3019,29
663,19	2715,02
663,597	2406,07
664,005	1898,17
664,412	1640,72
664,819	1348,15
665,226	1210,06
665,634	1055,58
666,041	1287,29
666,448	1273,25
666,855	1626,67
667,262	1734,34
667,669	2209,47
668,075	2649,49
668,482	3185,47
668,889	3040,36
669,296	2698,64
669,702	2839,07
670,109	2445,86
670,515	2595,65
670,922	2368,62
671,328	2207,13
671,734	1708,59
672,141	1364,53
672,547	1018,13
672,953	1027,5
673,359	788,76
673,765	641,31
674,171	617,9
674,577	734,93
674,983	898,77
675,389	1121,12
675,795	1469,86
676,201	1818,6
676,606	1717,95
677,012	1621,99
677,417	1465,18
677,823	1430,07
678,228	1514,33
678,634	1357,51
679,039	1469,86
679,444	1268,57
679,849	1102,39
680,255	922,17
680,66	793,44
681,065	732,59
681,47	580,45
681,875	461,09
682,28	440,02
682,684	372,15
683,089	414,27
683,494	428,32
683,899	449,38
684,303	470,45
684,708	524,28
685,112	521,94
685,517	461,09
685,921	461,09
686,325	507,9
686,729	442,36
687,134	622,58
687,538	851,95
687,942	835,57
688,346	737,27
688,75	643,65
689,154	524,28
689,558	456,4
689,961	294,91
690,365	252,78
690,769	187,24
691,173	334,7
691,576	72,56
691,98	149,79
692,383	161,5
692,786	161,5
693,19	229,37
693,593	283,2
693,996	236,39
694,399	337,04
694,803	400,23
695,206	421,3
695,609	280,86
696,012	559,39
696,414	3073,12
696,817	13743,63
697,22	21020,35
697,623	23421,74
698,025	15852,45
698,428	9699,18
698,831	5703,89
699,233	3356,33
699,636	2296,07
700,038	1519,01
700,44	1135,16
700,842	688,12
701,245	369,8
701,647	332,36
702,049	168,52
702,451	360,44
702,853	313,63
703,255	393,21
703,657	557,05
704,058	540,66
704,46	491,51
704,862	393,21
705,264	278,52
705,665	304,27
706,067	421,3
706,468	1217,08
706,869	6864,79
707,271	12397,82
707,672	15222,84
708,073	12093,55
708,474	7398,43
708,876	4601,49
709,277	2750,13
709,678	1729,66
710,079	1299
710,479	999,41
710,88	561,73
711,281	416,62
711,682	369,8
712,082	491,51
712,483	276,18
712,883	540,66
713,284	440,02
713,684	327,67
714,085	440,02
714,485	641,31
714,885	1427,73
715,285	2099,46
715,686	2455,22
716,086	1926,26
716,486	1324,74
716,886	842,59
717,285	716,2
717,685	580,45
718,085	402,57
718,485	337,04
718,884	315,97
719,284	313,63
719,684	264,48
720,083	236,39
720,483	255,12
720,882	234,05
721,281	294,91
721,68	330,02
722,08	496,19
722,479	533,64
722,878	503,22
723,277	533,64
723,676	617,9
724,075	676,41
724,474	667,05
724,872	723,23
725,271	657,69
725,67	727,91
726,068	812,17
726,467	833,23
726,865	903,45
727,264	2106,48
727,662	4252,75
728,061	5317,7
728,459	5034,49
728,857	3487,4
729,255	2267,98
729,653	1598,59
730,051	1060,26
730,449	912,81
730,847	688,12
731,245	608,54
731,643	627,26
732,041	631,94
732,438	613,22
732,836	528,96
733,233	507,9
733,631	667,05
734,028	777,06
734,426	908,13
734,823	884,72
735,22	1027,5
735,617	1256,87
736,015	1210,06
736,412	1167,93
736,809	1207,72
737,206	1444,11
737,603	1607,95
737,999	2324,15
738,396	8140,38
738,793	18047,87
739,19	22752,35
739,586	21282,49
739,983	12453,99
740,379	8322,94
740,776	5060,24
741,172	3183,13
741,568	2424,8
741,965	1846,68
742,361	1322,4
742,757	823,87
743,153	681,1
743,549	624,92
743,945	718,54
744,341	755,99
744,737	858,98
745,133	954,94
