Data from FLMS058141__3__14-55-01-649.txt Node

Date: Thu Apr 21 14:55:01 CEST 2022
User: jeppe
Spectrometer: FLMS05814
Trigger mode: 0
Integration Time (sec): 1,000000E-1
Scans to average: 1
Electric dark correction enabled: true
Nonlinearity correction enabled: false
Boxcar width: 0
XAxis mode: Wavelengths
Number of Pixels in Spectrum: 2048
>>>>>Begin Spectral Data<<<<<
188,012	70,51
188,47	70,51
188,927	70,51
189,385	-74,6
189,842	-90,99
190,3	-126,1
190,757	-69,92
191,215	-114,39
191,672	-100,35
192,129	-95,67
192,586	-37,16
193,044	-69,92
193,501	4,97
193,958	12
194,415	14,34
194,872	-20,77
195,329	75,19
195,787	136,04
196,244	119,66
196,7	159,45
197,157	112,64
197,614	217,96
198,071	112,64
198,528	243,71
198,985	629,9
199,441	587,77
199,898	606,49
200,355	587,77
200,812	615,85
201,268	681,39
201,725	622,88
202,181	702,45
202,638	622,88
203,094	641,6
203,551	739,9
204,007	702,45
204,463	742,24
204,92	730,54
205,376	777,35
205,832	667,35
206,288	714,16
206,744	695,43
207,201	756,29
207,657	765,65
208,113	629,9
208,569	789,05
209,025	742,24
209,481	688,41
209,937	660,32
210,392	634,58
210,848	676,71
211,304	639,26
211,76	683,73
212,215	650,96
212,671	702,45
213,127	676,71
213,582	742,24
214,038	765,65
214,494	697,77
214,949	686,07
215,404	695,43
215,86	686,07
216,315	730,54
216,771	665
217,226	746,92
217,681	821,82
218,136	732,88
218,592	653,3
219,047	718,84
219,502	716,5
219,957	679,05
220,412	700,11
220,867	669,69
221,322	604,15
221,777	679,05
222,232	688,41
222,687	646,28
223,142	758,63
223,596	735,22
224,051	688,41
224,506	716,5
224,96	695,43
225,415	672,03
225,87	707,13
226,324	683,73
226,779	702,45
227,233	737,56
227,688	697,77
228,142	618,19
228,597	732,88
229,051	760,97
229,505	744,58
229,959	702,45
230,414	723,52
230,868	648,62
231,322	723,52
231,776	693,09
232,23	695,43
232,684	728,2
233,138	737,56
233,592	686,07
234,046	765,65
234,5	746,92
234,954	660,32
235,408	730,54
235,861	742,24
236,315	693,09
236,769	716,5
237,222	777,35
237,676	737,56
238,13	723,52
238,583	690,75
239,037	782,03
239,49	737,56
239,944	730,54
240,397	639,26
240,85	753,95
241,304	711,82
241,757	721,18
242,21	676,71
242,663	746,92
243,117	782,03
243,57	657,98
244,023	779,69
244,476	686,07
244,929	753,95
245,382	716,5
245,835	784,37
246,288	765,65
246,741	756,29
247,193	693,09
247,646	669,69
248,099	735,22
248,552	800,76
249,004	814,8
249,457	718,84
249,909	847,57
250,362	716,5
250,814	767,99
251,267	779,69
251,719	721,18
252,172	744,58
252,624	819,48
253,076	840,54
253,529	789,05
253,981	812,46
254,433	753,95
254,885	735,22
255,337	828,84
255,79	793,73
256,242	767,99
256,694	730,54
257,146	697,77
257,598	814,8
258,049	814,8
258,501	765,65
258,953	775,01
259,405	842,89
259,857	789,05
260,308	840,54
260,76	753,95
261,212	819,48
261,663	793,73
262,115	859,27
262,566	828,84
263,018	763,31
263,469	772,67
263,92	749,26
264,372	833,52
264,823	753,95
265,274	777,35
265,726	767,99
266,177	746,92
266,628	812,46
267,079	758,63
267,53	751,6
267,981	798,42
268,432	805,44
268,883	782,03
269,334	892,04
269,785	803,1
270,236	826,5
270,687	840,54
271,137	894,38
271,588	779,69
272,039	833,52
272,489	760,97
272,94	767,99
273,391	739,9
273,841	784,37
274,292	737,56
274,742	854,59
275,192	835,86
275,643	798,42
276,093	861,61
276,543	819,48
276,994	835,86
277,444	859,27
277,894	793,73
278,344	826,5
278,794	772,67
279,244	835,86
279,694	875,65
280,144	866,29
280,594	934,17
281,044	842,89
281,494	985,66
281,944	810,12
282,394	866,29
282,843	861,61
283,293	873,31
283,743	906,08
284,192	810,12
284,642	861,61
285,091	877,99
285,541	906,08
285,99	861,61
286,44	828,84
286,889	826,5
287,338	894,38
287,788	730,54
288,237	770,33
288,686	917,78
289,135	915,44
289,584	941,19
290,034	948,21
290,483	877,99
290,932	775,01
291,381	856,93
291,83	842,89
292,278	915,44
292,727	880,33
293,176	828,84
293,625	908,42
294,074	906,08
294,522	899,06
294,971	835,86
295,42	861,61
295,868	845,23
296,317	955,23
296,765	906,08
297,214	952,89
297,662	906,08
298,11	957,57
298,559	952,89
299,007	875,65
299,455	922,46
299,903	1002,04
300,352	920,12
300,8	1002,04
301,248	1034,81
301,696	978,64
302,144	1051,19
302,592	1102,68
303,04	1112,05
303,488	1240,78
303,936	1278,23
304,383	1364,82
304,831	1516,96
305,279	1605,9
305,727	1704,2
306,174	2022,52
306,622	2074,01
307,069	2179,33
307,517	2448,49
307,964	2741,06
308,412	2989,16
308,859	3145,97
309,306	3422,16
309,754	3497,05
310,201	3721,74
310,648	3845,79
311,096	4491,78
311,543	5247,77
311,99	5832,91
312,437	6301,01
312,884	6441,45
313,331	6764,44
313,778	7218,5
314,225	7482,99
314,672	7890,24
315,118	8297,49
315,565	8561,97
316,012	8784,32
316,459	8700,06
316,905	8730,49
317,352	9388,18
317,798	10523,34
318,245	11138,9
318,691	10979,75
319,138	11094,43
319,584	11202,1
320,031	12009,58
320,477	12592,37
320,923	13481,78
321,37	14560,77
321,816	15461,87
322,262	15714,65
322,708	15726,35
323,154	15389,31
323,6	15506,34
324,046	15372,93
324,492	16758,53
324,938	17853,9
325,384	19038,21
325,83	20135,92
326,276	21329,59
326,721	23080,32
327,167	24966,79
327,613	25259,35
328,058	25418,51
328,504	24381,65
328,949	24147,6
329,395	24838,06
329,84	25870,23
330,286	27695,85
330,731	28515,04
331,177	28168,64
331,622	26867,3
332,067	26548,99
332,512	26511,54
332,957	26551,33
333,403	26406,22
333,848	26640,27
334,293	25413,83
334,738	26008,33
335,183	25987,26
335,628	26949,22
336,072	26822,83
336,517	26041,09
336,962	25139,99
337,407	23967,38
337,852	23873,76
338,296	23890,14
338,741	25175,09
339,185	26029,39
339,63	26431,96
340,074	27330,73
340,519	28147,58
340,963	28870,8
341,408	28692,92
341,852	27733,3
342,296	28051,61
342,741	28138,21
343,185	28891,87
343,629	29004,21
344,073	28926,97
344,517	27091,99
344,961	24884,87
345,405	24606,34
345,849	26628,57
346,293	27122,42
346,737	26696,44
347,181	27059,23
347,624	27972,03
348,068	27204,34
348,512	26815,81
348,955	26897,73
349,399	26811,13
349,843	26055,14
350,286	26546,65
350,73	27719,26
351,173	29207,84
351,617	29205,5
352,06	28955,06
352,503	28582,91
352,946	27702,87
353,39	27131,78
353,833	27234,77
354,276	29121,24
354,719	30616,84
355,162	31304,96
355,605	31192,61
356,048	31019,41
356,491	30338,32
356,934	29418,49
357,377	27595,21
357,82	26420,26
358,262	24812,31
358,705	23859,71
359,148	22434,33
359,59	23031,16
360,033	26539,63
360,475	29352,95
360,918	30431,94
361,36	28669,51
361,803	27667,77
362,245	27024,12
362,688	27522,65
363,13	28840,37
363,572	29549,56
364,014	29451,25
364,456	29734,46
364,899	30020
365,341	30408,53
365,783	30326,61
366,225	32533,74
366,667	34310,21
367,108	35113,01
367,55	35115,35
367,992	34829,8
368,434	34333,61
368,876	33338,88
369,317	33020,57
369,759	33647,83
370,201	35026,41
370,642	35789,42
371,084	34497,45
371,525	33771,88
371,966	33650,17
372,408	33711,03
372,849	32416,71
373,29	31106,01
373,732	29764,89
374,173	28468,23
374,614	27127,1
375,055	26518,56
375,496	27290,94
375,937	28327,8
376,378	30188,52
376,819	30787,7
377,26	31134,1
377,701	32241,17
378,142	34223,61
378,583	36901,18
379,023	37336,52
379,464	36147,53
379,905	34087,85
380,345	32351,18
380,786	32060,95
381,226	33331,86
381,667	33495,7
382,107	32273,94
382,548	29448,91
382,988	26331,32
383,428	23403,31
383,868	21804,72
384,309	20889,57
384,749	22371,13
385,189	25058,07
385,629	27459,46
386,069	27976,72
386,509	27756,71
386,949	27684,15
387,389	27796,49
387,829	28575,89
388,268	28248,22
388,708	27876,07
389,148	28140,55
389,588	28767,82
390,027	30640,25
390,467	32035,2
390,906	33451,23
391,346	34218,92
391,785	35805,81
392,225	36217,74
392,664	34658,95
393,103	31407,94
393,543	26015,35
393,982	21406,83
394,421	19763,78
394,86	22776,05
395,299	27356,47
395,738	31321,34
396,177	33086,11
396,616	31796,47
397,055	27730,96
397,494	23450,12
397,933	23162,23
398,372	27391,58
398,81	32465,86
399,249	37296,73
399,688	40051,54
400,126	41776,51
400,565	42715,07
401,004	43585,75
401,442	44077,26
401,88	44767,72
402,319	45399,66
402,757	45996,5
403,195	46249,28
403,634	44889,43
404,072	44961,98
404,51	45081,35
404,948	44880,06
405,386	44692,82
405,824	44231,74
406,262	44826,23
406,7	43157,43
407,138	43033,38
407,576	42935,08
408,014	43688,73
408,452	43733,2
408,889	45739,04
409,327	46628,45
409,765	46752,49
410,202	45959,05
410,64	43953,21
411,077	42766,56
411,515	43590,43
411,952	45860,75
412,389	47674,66
412,827	47255,71
413,264	47791,69
413,701	46490,35
414,138	46792,28
414,575	47150,38
415,013	46445,88
415,45	46076,08
415,887	46197,79
416,324	46223,53
416,76	46551,21
417,197	46560,57
417,634	46090,12
418,071	44961,98
418,508	43569,36
418,944	43995,34
419,381	44318,34
419,818	43728,52
420,254	43543,62
420,691	43641,92
421,127	43293,18
421,563	45004,11
422	45359,87
422,436	45507,33
422,872	43421,91
423,309	43082,53
423,745	42221,22
424,181	42530,17
424,617	43192,54
425,053	43578,73
425,489	43229,99
425,925	43478,08
426,361	43080,19
426,797	42246,96
427,233	41970,78
427,668	42921,04
428,104	41434,8
428,54	41933,33
428,975	41718
429,411	41551,82
429,847	39939,19
430,282	38085,49
430,717	36117,1
431,153	33079,08
431,588	33467,61
432,024	36079,65
432,459	40259,85
432,894	42275,05
433,329	42478,68
433,764	44128,75
434,199	44358,13
434,634	42956,14
435,069	41933,33
435,504	42483,36
435,939	44161,52
436,374	44641,33
436,809	47215,92
437,244	46635,47
437,678	46867,18
438,113	45521,37
438,548	43765,97
438,982	42399,1
439,417	41945,03
439,851	43124,66
440,286	44056,2
440,72	44236,42
441,154	43304,88
441,589	44182,59
442,023	45671,17
442,457	46567,59
442,891	46602,7
443,326	46253,96
443,76	46378,01
444,194	46429,5
444,628	46349,92
445,062	47077,83
445,495	47110,6
445,929	45893,52
446,363	45086,03
446,797	44433,02
447,23	45219,44
447,664	45886,5
448,098	46658,87
448,531	46806,33
448,965	47403,16
449,398	47735,52
449,832	47571,68
450,265	47073,15
450,698	48042,13
451,132	48849,61
451,565	49423,04
451,998	49579,86
452,431	48568,75
452,864	47761,26
453,297	47134
453,73	46181,4
454,163	46090,12
454,596	46773,56
455,029	47456,99
455,462	48454,06
455,895	46960,8
456,327	48245,76
456,76	48957,28
457,193	49551,77
457,625	48809,82
458,058	50216,49
458,49	50108,82
458,923	49406,66
459,355	48706,84
459,787	50022,22
460,22	49741,36
460,652	49064,94
461,084	50005,84
461,516	49301,34
461,948	50043,29
462,381	50291,38
462,813	51136,32
463,245	50548,84
463,676	50918,65
464,108	51293,13
464,54	50682,25
464,972	49935,62
465,404	49284,95
465,835	49582,2
466,267	50466,92
466,699	51019,29
467,13	50289,04
467,562	49448,79
467,993	50590,97
468,424	50382,66
468,856	51651,23
469,287	51323,56
469,718	51819,75
470,15	51492,08
470,581	51875,93
471,012	51241,64
471,443	51939,12
471,874	51527,19
472,305	52542,98
472,736	53404,3
473,167	54087,73
473,598	53940,28
474,028	53406,64
474,459	54331,15
474,89	54532,43
475,32	54813,3
475,751	54825
476,182	55250,98
476,612	55169,06
477,043	54703,29
477,473	55836,11
477,903	55941,44
478,334	56898,72
478,764	57282,56
479,194	57275,54
479,624	57252,14
480,054	57982,38
480,484	58373,25
480,914	58406,02
481,344	58406,02
481,774	58956,05
482,204	59007,54
482,634	59316,49
483,064	59660,55
483,494	59295,42
483,923	59236,91
484,353	59187,76
484,782	59487,35
485,212	59534,16
485,642	59384,36
486,071	58619,01
486,5	56812,12
486,93	55974,2
487,359	55562,27
487,788	56882,33
488,217	57987,06
488,647	58726,67
489,076	59014,56
489,505	58958,39
489,934	59538,84
490,363	60081,84
490,792	60381,43
491,221	60535,91
491,649	60535,91
492,078	59936,73
492,507	59454,58
492,936	59028,6
493,364	59410,11
493,793	60056,1
494,221	60084,18
494,65	60039,71
495,078	60407,18
495,507	60695,06
495,935	60601,44
496,363	60287,81
496,791	60084,18
497,22	60131
497,648	60491,44
498,076	60641,23
498,504	60198,87
498,932	59515,43
499,36	59112,86
499,788	59676,93
500,216	59770,55
500,643	59400,75
501,071	58988,81
501,499	58829,66
501,927	58389,64
502,354	58122,82
502,782	58143,88
503,209	58382,62
503,637	58611,99
504,064	58817,96
504,491	58558,16
504,919	58499,64
505,346	58413,04
505,773	58761,78
506,2	59042,65
506,628	59435,86
507,055	59220,53
507,482	59016,9
507,909	58827,32
508,335	58420,06
508,762	58176,65
509,189	58223,46
509,616	58757,1
510,043	58920,94
510,469	58810,93
510,896	58511,34
511,323	58235,16
511,749	58492,62
512,176	58991,15
512,602	58724,33
513,028	58377,93
513,455	58113,45
513,881	57853,65
514,307	57813,87
514,733	57516,62
515,16	57146,81
515,586	57205,33
516,012	57310,65
516,438	57542,36
516,864	56922,12
517,29	55669,93
517,715	54457,54
518,141	54417,75
518,567	54373,28
518,993	54902,24
519,418	54813,3
519,844	55344,6
520,269	56065,49
520,695	56692,75
521,12	56671,68
521,546	56739,56
521,971	56720,84
522,396	57146,81
522,822	57165,54
523,247	56755,94
523,672	56449,33
524,097	56430,61
524,522	57228,73
524,947	57476,83
525,372	57645,35
525,797	57455,76
526,222	57371,5
526,647	56655,3
527,071	56002,29
527,496	54766,49
527,921	54541,8
528,345	55150,34
528,77	55658,23
529,194	56313,58
529,619	56823,82
530,043	57006,38
530,468	56926,8
530,892	56334,65
531,316	56615,51
531,74	57071,92
532,164	57191,28
532,589	56636,58
533,013	55758,87
533,437	55215,87
533,861	54972,45
534,284	55456,95
534,708	55166,72
535,132	55129,27
535,556	55630,15
535,98	55382,05
536,403	55971,86
536,827	55962,5
537,25	55311,83
537,674	54874,15
538,097	54548,82
538,521	54857,77
538,944	54703,29
539,367	54789,89
539,791	54588,61
540,214	54202,42
540,637	53579,84
541,06	53296,63
541,483	52753,63
541,906	52835,55
542,329	53200,67
542,752	53544,73
543,175	53448,77
543,598	52990,02
544,02	53298,97
544,443	53270,89
544,866	53081,3
545,288	53572,81
545,711	53329,4
546,133	53446,43
546,556	53128,11
546,978	53200,67
547,4	52814,48
547,823	52706,82
548,245	52447,02
548,667	51815,07
549,089	51997,63
549,511	52191,9
549,933	52456,38
550,355	52608,51
550,777	52503,19
551,199	52023,38
551,621	52016,36
552,043	51611,45
552,465	51911,03
552,886	51714,43
553,308	51763,58
553,729	51410,16
554,151	51543,57
554,572	51454,63
554,994	51566,98
555,415	51494,42
555,837	51564,63
556,258	51356,33
556,679	51124,61
557,1	50970,14
557,521	50516,07
557,942	50429,48
558,363	50242,23
558,784	50120,52
559,205	49186,65
559,626	49245,16
560,047	48697,48
560,468	48660,03
560,888	49254,53
561,309	49165,59
561,73	49640,71
562,15	49287,29
562,571	49043,88
562,991	48737,27
563,412	49095,37
563,832	48788,76
564,252	48814,51
564,673	48772,38
565,093	48351,08
565,513	48418,95
565,933	48100,64
566,353	47838,5
566,773	47438,27
567,193	47194,85
567,613	47583,38
568,033	47859,57
568,452	47812,76
568,872	47332,95
569,292	47103,57
569,711	46605,04
570,131	46532,48
570,551	46775,9
570,97	46347,58
571,389	45685,21
571,809	45680,53
572,228	45666,48
572,647	46209,49
573,067	46488,01
573,486	47124,64
573,905	46818,03
574,324	47274,43
574,743	47059,1
575,162	47232,3
575,581	46885,9
576	46338,22
576,419	45898,2
576,837	45809,26
577,256	46120,55
577,675	45970,75
578,093	45809,26
578,512	45350,51
578,93	45296,68
579,349	44514,94
579,767	44500,9
580,185	44505,58
580,604	44674,1
581,022	44528,98
581,44	44526,64
581,858	44416,64
582,276	44044,49
582,694	44741,97
583,112	44519,62
583,53	44117,05
583,948	43798,74
584,366	43978,96
584,784	43775,33
585,201	43265,1
585,619	43316,59
586,037	42272,71
586,454	42003,55
586,872	41760,13
587,289	41813,96
587,707	41165,63
588,124	41579,91
588,541	41001,8
588,958	39967,28
589,376	38822,76
589,793	37601
590,21	37132,89
590,627	37116,51
591,044	38017,61
591,461	38417,85
591,878	38321,88
592,294	38836,8
592,711	39091,92
593,128	38825,1
593,545	38820,42
593,961	38925,74
594,378	38649,56
594,794	38946,81
595,211	38485,72
595,627	38764,25
596,043	38712,75
596,46	39267,46
596,876	38794,67
597,292	39663,01
597,708	39513,22
598,124	39548,32
598,54	39244,05
598,956	39316,61
599,372	39237,03
599,788	39695,78
600,204	39787,06
600,62	39625,56
601,035	39297,89
601,451	39215,97
601,867	39726,21
602,282	38937,44
602,698	38698,71
603,113	38581,68
603,529	39152,77
603,944	39112,98
604,359	39426,62
604,774	39522,58
605,19	39529,6
605,605	38794,67
606,02	38684,67
606,435	38598,07
606,85	37874,84
607,265	38139,32
607,68	37739,09
608,094	37273,32
608,509	37252,26
608,924	37266,3
609,338	36737,34
609,753	36332,43
610,168	36135,82
610,582	35475,79
610,997	35215,99
611,411	35134,07
611,825	34864,91
612,24	34836,83
612,654	34623,84
613,068	34378,08
613,482	34209,56
613,896	33692,3
614,31	32999,51
614,724	33158,66
615,138	33242,92
615,552	32859,07
615,966	32299,69
616,379	31873,71
616,793	31883,07
617,207	31592,84
617,62	31414,96
618,034	30930,47
618,447	31550,71
618,861	31658,38
619,274	31503,9
619,687	31372,83
620,101	31606,89
620,514	31637,31
620,927	31157,5
621,34	31894,77
621,753	31314,32
622,166	30729,19
622,579	30317,25
622,992	30247,04
623,405	29917,02
623,817	29645,52
624,23	29484,02
624,643	29315,5
625,055	28952,72
625,468	28835,69
625,88	28255,24
626,293	28140,55
626,705	28089,06
627,118	28170,98
627,53	27756,71
627,942	27892,46
628,354	27155,19
628,766	27077,95
629,179	26979,65
629,591	26438,98
630,003	26862,62
630,414	26546,65
630,826	26099,61
631,238	26270,47
631,65	26062,16
632,061	25982,58
632,473	25722,78
632,885	25563,62
633,296	25594,05
633,708	25900,66
634,119	25608,09
634,53	25109,56
634,942	25137,65
635,353	25605,75
635,764	25381,06
636,175	25439,58
636,586	25008,92
636,998	24643,79
637,408	24461,23
637,819	24639,11
638,23	25154,03
638,641	24564,21
639,052	24915,3
639,463	24398,04
639,873	24281,01
640,284	24379,31
640,694	23611,62
641,105	23543,74
641,515	23506,29
641,926	23499,27
642,336	23113,08
642,746	23529,7
643,157	23073,29
643,567	23054,57
643,977	23094,36
644,387	23227,77
644,797	23389,27
645,207	22750,3
645,617	22843,92
646,026	22825,2
646,436	22242,4
646,846	21905,37
647,256	21793,02
647,665	22003,67
648,075	21708,76
648,484	21659,61
648,894	21795,36
649,303	21477,05
649,713	21189,16
650,122	20746,8
650,531	20723,4
650,94	21132,99
651,349	21470,03
651,758	21175,12
652,167	21109,58
652,576	21018,3
652,985	21025,32
653,394	20931,7
653,803	20573,6
654,212	20620,41
654,62	20440,19
655,029	20681,27
655,437	20264,65
655,846	19656,11
656,254	18897,78
656,663	17626,87
657,071	17238,34
657,479	17301,53
657,888	18190,94
658,296	18364,14
658,704	18654,36
659,112	18745,64
659,52	19012,46
659,928	18914,16
660,336	18865,01
660,744	19080,34
661,152	19152,9
661,559	19052,25
661,967	19092,04
662,375	18811,18
662,782	19012,46
663,19	19117,79
663,597	18890,76
664,005	18993,74
664,412	18464,78
664,819	18645
665,226	18525,63
665,634	18387,54
666,041	18598,19
666,448	18450,74
666,855	18289,24
667,262	18073,91
667,669	17804,75
668,075	17919,43
668,482	17479,41
668,889	17643,25
669,296	17479,41
669,702	17577,72
670,109	17645,59
670,515	17182,17
670,922	17067,48
671,328	17327,28
671,734	17203,23
672,141	16880,24
672,547	16999,6
672,953	16685,97
673,359	16430,85
673,765	16711,72
674,171	16405,11
674,577	16524,47
674,983	16236,59
675,389	16292,76
675,795	16044,66
676,201	15918,28
676,606	16105,52
677,012	15698,27
677,417	15782,52
677,823	15934,66
678,228	15693,58
678,634	15979,13
679,039	15550,81
679,444	15653,8
679,849	15473,57
680,255	15347,19
680,66	15049,94
681,065	14804,18
681,47	15010,15
681,875	14984,4
682,28	15141,22
682,684	14769,07
683,089	14907,16
683,494	14748,01
683,899	14502,25
684,303	14485,87
684,708	14207,34
685,112	14242,45
685,517	14298,63
685,921	14064,57
686,325	13919,46
686,729	13640,93
687,134	12777,28
687,538	11583,6
687,942	10825,27
688,346	10907,19
688,75	11162,31
689,154	11188,05
689,558	11213,8
689,961	11363,59
690,365	11106,13
690,769	11162,31
691,173	11471,26
691,576	11735,74
691,98	11735,74
692,383	11845,74
692,786	11934,68
693,19	12023,62
693,593	11838,72
693,996	11731,06
694,399	11958,09
694,803	11745,1
695,206	11915,96
695,609	11656,16
696,012	11794,25
696,414	11728,72
696,817	11834,04
697,22	11745,1
697,623	11621,05
698,025	11712,33
698,428	11595,31
698,831	11401,04
699,233	11609,35
699,636	11391,68
700,038	11241,89
700,44	11042,94
700,842	11155,29
701,245	10787,82
701,647	10879,1
702,049	10790,16
702,451	10687,18
702,853	10762,08
703,255	10778,46
703,657	10619,3
704,058	10733,99
704,46	10832,29
704,862	10382,91
705,264	10825,27
705,665	10506,96
706,067	10691,86
706,468	10605,26
