Data from Subt10__11__15-58-46-426.txt Node

Date: Thu Apr 21 15:58:46 CEST 2022
User: jeppe
Spectrometer: FLMS05814
Trigger mode: 0
Integration Time (sec): 1,000000E-1
Scans to average: 1
Electric dark correction enabled: true
Nonlinearity correction enabled: false
Boxcar width: 0
XAxis mode: Wavelengths
Number of Pixels in Spectrum: 2048
>>>>>Begin Spectral Data<<<<<
188,012	67,29
188,47	67,29
188,927	67,29
189,385	-54,42
189,842	-5,27
190,3	18,14
190,757	-21,65
191,215	64,95
191,672	-33,35
192,129	-42,71
192,586	41,54
193,044	43,89
193,501	-23,99
193,958	118,78
194,415	60,27
194,872	11,12
195,329	1,76
195,787	-82,5
196,244	-21,65
196,7	-87,18
197,157	-47,4
197,614	18,14
198,071	-38,03
198,528	100,06
198,985	203,04
199,441	81,33
199,898	132,83
200,355	15,8
200,812	142,19
201,268	203,04
201,725	189
202,181	191,34
202,638	160,91
203,094	46,23
203,551	189
204,007	172,61
204,463	8,78
204,92	158,57
205,376	39,2
205,832	41,54
206,288	151,55
206,744	132,83
207,201	74,31
207,657	130,48
208,113	139,85
208,569	135,17
209,025	252,19
209,481	153,89
209,937	123,46
210,392	156,23
210,848	114,1
211,304	132,83
211,76	76,65
212,215	69,63
212,671	76,65
213,127	172,61
213,582	69,63
214,038	252,19
214,494	165,59
214,949	93,04
215,404	200,7
215,86	86,01
216,315	78,99
216,771	118,78
217,226	146,87
217,681	181,98
218,136	-0,59
218,592	170,27
219,047	165,59
219,502	53,25
219,957	111,76
220,412	36,86
220,867	196,02
221,322	62,61
221,777	132,83
222,232	102,4
222,687	109,42
223,142	36,86
223,596	146,87
224,051	214,74
224,506	219,43
224,96	287,3
225,415	100,06
225,87	189
226,324	221,77
226,779	69,63
227,233	104,74
227,688	48,57
228,142	167,93
228,597	95,38
229,051	163,25
229,505	153,89
229,959	191,34
230,414	121,12
230,868	144,53
231,322	167,93
231,776	191,34
232,23	100,06
232,684	109,42
233,138	60,27
233,592	149,21
234,046	78,99
234,5	104,74
234,954	128,14
235,408	172,61
235,861	55,59
236,315	53,25
236,769	177,3
237,222	109,42
237,676	95,38
238,13	268,58
238,583	156,23
239,037	69,63
239,49	156,23
239,944	153,89
240,397	263,9
240,85	118,78
241,304	160,91
241,757	76,65
242,21	172,61
242,663	172,61
243,117	81,33
243,57	64,95
244,023	111,76
244,476	102,4
244,929	191,34
245,382	137,51
245,835	200,7
246,288	193,68
246,741	263,9
247,193	144,53
247,646	132,83
248,099	172,61
248,552	25,16
249,004	111,76
249,457	165,59
249,909	78,99
250,362	186,66
250,814	193,68
251,267	205,38
251,719	146,87
252,172	88,36
252,624	93,04
253,076	198,36
253,529	165,59
253,981	132,83
254,433	149,21
254,885	34,52
255,337	242,83
255,79	132,83
256,242	214,74
256,694	207,72
257,146	179,64
257,598	123,46
258,049	27,5
258,501	121,12
258,953	247,51
259,405	97,72
259,857	149,21
260,308	174,96
260,76	34,52
261,212	151,55
261,663	74,31
262,115	121,12
262,566	71,97
263,018	179,64
263,469	177,3
263,92	200,7
264,372	210,06
264,823	193,68
265,274	97,72
265,726	88,36
266,177	153,89
266,628	41,54
267,079	203,04
267,53	308,37
267,981	32,18
268,432	158,57
268,883	219,43
269,334	57,93
269,785	132,83
270,236	13,46
270,687	111,76
271,137	228,79
271,588	130,48
272,039	153,89
272,489	245,17
272,94	153,89
273,391	100,06
273,841	-14,63
274,292	252,19
274,742	149,21
275,192	231,13
275,643	109,42
276,093	41,54
276,543	184,32
276,994	139,85
277,444	67,29
277,894	165,59
278,344	210,06
278,794	179,64
279,244	158,57
279,694	149,21
280,144	114,1
280,594	125,8
281,044	97,72
281,494	198,36
281,944	203,04
282,394	102,4
282,843	104,74
283,293	163,25
283,743	139,85
284,192	15,8
284,642	64,95
285,091	247,51
285,541	177,3
285,99	90,7
286,44	53,25
286,889	186,66
287,338	149,21
287,788	156,23
288,237	165,59
288,686	90,7
289,135	121,12
289,584	198,36
290,034	146,87
290,483	90,7
290,932	160,91
291,381	240,49
291,83	74,31
292,278	156,23
292,727	137,51
293,176	130,48
293,625	235,81
294,074	160,91
294,522	193,68
294,971	95,38
295,42	247,51
295,868	228,79
296,317	210,06
296,765	132,83
297,214	172,61
297,662	174,96
298,11	50,91
298,559	111,76
299,007	74,31
299,455	160,91
299,903	165,59
300,352	97,72
300,8	212,4
301,248	137,51
301,696	153,89
302,144	170,27
302,592	62,61
303,04	29,84
303,488	39,2
303,936	132,83
304,383	163,25
304,831	118,78
305,279	88,36
305,727	158,57
306,174	139,85
306,622	247,51
307,069	179,64
307,517	172,61
307,964	116,44
308,412	128,14
308,859	55,59
309,306	153,89
309,754	163,25
310,201	184,32
310,648	179,64
311,096	137,51
311,543	128,14
311,99	142,19
312,437	146,87
312,884	144,53
313,331	193,68
313,778	160,91
314,225	163,25
314,672	160,91
315,118	135,17
315,565	146,87
316,012	69,63
316,459	62,61
316,905	64,95
317,352	142,19
317,798	76,65
318,245	170,27
318,691	217,08
319,138	184,32
319,584	158,57
320,031	181,98
320,477	125,8
320,923	214,74
321,37	193,68
321,816	109,42
322,262	118,78
322,708	144,53
323,154	198,36
323,6	217,08
324,046	170,27
324,492	151,55
324,938	158,57
325,384	74,31
325,83	144,53
326,276	181,98
326,721	181,98
327,167	74,31
327,613	151,55
328,058	135,17
328,504	240,49
328,949	48,57
329,395	191,34
329,84	93,04
330,286	88,36
330,731	156,23
331,177	270,92
331,622	144,53
332,067	55,59
332,512	36,86
332,957	95,38
333,403	114,1
333,848	191,34
334,293	137,51
334,738	186,66
335,183	93,04
335,628	177,3
336,072	235,81
336,517	193,68
336,962	259,21
337,407	734,34
337,852	928,61
338,296	795,2
338,741	409,01
339,185	315,39
339,63	214,74
340,074	210,06
340,519	200,7
340,963	245,17
341,408	156,23
341,852	561,14
342,296	1396,71
342,741	1815,67
343,185	1441,18
343,629	750,73
344,073	413,69
344,517	392,62
344,961	872,43
345,405	1665,88
345,849	2279,1
346,293	2410,17
346,737	2616,13
347,181	3004,66
347,624	3559,37
348,068	3018,71
348,512	2119,94
348,955	1134,57
349,399	596,25
349,843	462,84
350,286	706,26
350,73	870,09
351,173	874,78
351,617	928,61
352,06	1326,5
352,503	2293,14
352,946	2585,71
353,39	2103,56
353,833	977,76
354,276	558,8
354,719	362,2
355,162	294,32
355,605	109,42
356,048	270,92
356,491	100,06
356,934	263,9
357,377	167,93
357,82	151,55
358,262	207,72
358,705	146,87
359,148	284,96
359,59	1387,35
360,033	2297,82
360,475	2630,18
360,918	1906,95
361,36	1038,61
361,803	682,85
362,245	249,85
362,688	156,23
363,13	268,58
363,572	198,36
364,014	320,07
364,456	362,2
364,899	287,3
365,341	249,85
365,783	242,83
366,225	111,76
366,667	86,01
367,108	156,23
367,55	160,91
367,992	240,49
368,434	210,06
368,876	331,77
369,317	380,92
369,759	345,81
370,201	235,81
370,642	329,43
371,084	362,2
371,525	306,03
371,966	334,11
372,408	107,08
372,849	135,17
373,29	132,83
373,732	151,55
374,173	81,33
374,614	132,83
375,055	104,74
375,496	125,8
375,937	130,48
376,378	76,65
376,819	149,21
377,26	135,17
377,701	217,08
378,142	238,15
378,583	111,76
379,023	212,4
379,464	71,97
379,905	83,67
380,345	95,38
380,786	172,61
381,226	132,83
381,667	170,27
382,107	102,4
382,548	163,25
382,988	160,91
383,428	205,38
383,868	144,53
384,309	90,7
384,749	156,23
385,189	153,89
385,629	144,53
386,069	137,51
386,509	146,87
386,949	95,38
387,389	71,97
387,829	184,32
388,268	11,12
388,708	104,74
389,148	149,21
389,588	118,78
390,027	123,46
390,467	83,67
390,906	60,27
391,346	156,23
391,785	203,04
392,225	158,57
392,664	203,04
393,103	114,1
393,543	118,78
393,982	95,38
394,421	93,04
394,86	137,51
395,299	74,31
395,738	15,8
396,177	55,59
396,616	121,12
397,055	156,23
397,494	6,44
397,933	128,14
398,372	114,1
398,81	219,43
399,249	179,64
399,688	118,78
400,126	62,61
400,565	172,61
401,004	179,64
401,442	181,98
401,88	170,27
402,319	165,59
402,757	114,1
403,195	158,57
403,634	114,1
404,072	46,23
404,51	81,33
404,948	121,12
405,386	27,5
405,824	149,21
406,262	104,74
406,7	156,23
407,138	158,57
407,576	139,85
408,014	170,27
408,452	163,25
408,889	226,45
409,327	142,19
409,765	13,46
410,202	139,85
410,64	179,64
411,077	144,53
411,515	64,95
411,952	189
412,389	177,3
412,827	256,87
413,264	39,2
413,701	135,17
414,138	158,57
414,575	186,66
415,013	217,08
415,45	177,3
415,887	149,21
416,324	144,53
416,76	118,78
417,197	121,12
417,634	226,45
418,071	128,14
418,508	125,8
418,944	221,77
419,381	71,97
419,818	228,79
420,254	100,06
420,691	165,59
421,127	71,97
421,563	203,04
422	151,55
422,436	142,19
422,872	146,87
423,309	156,23
423,745	114,1
424,181	83,67
424,617	144,53
425,053	189
425,489	137,51
425,925	163,25
426,361	224,11
426,797	137,51
427,233	200,7
427,668	203,04
428,104	221,77
428,54	151,55
428,975	212,4
429,411	156,23
429,847	287,3
430,282	203,04
430,717	163,25
431,153	203,04
431,588	104,74
432,024	198,36
432,459	146,87
432,894	57,93
433,329	165,59
433,764	196,02
434,199	93,04
434,634	221,77
435,069	224,11
435,504	193,68
435,939	102,4
436,374	25,16
436,809	118,78
437,244	69,63
437,678	-2,93
438,113	181,98
438,548	71,97
438,982	165,59
439,417	67,29
439,851	100,06
440,286	153,89
440,72	174,96
441,154	95,38
441,589	149,21
442,023	146,87
442,457	221,77
442,891	226,45
443,326	181,98
443,76	167,93
444,194	146,87
444,628	193,68
445,062	167,93
445,495	256,87
445,929	177,3
446,363	203,04
446,797	151,55
447,23	174,96
447,664	228,79
448,098	228,79
448,531	165,59
448,965	135,17
449,398	128,14
449,832	111,76
450,265	179,64
450,698	48,57
451,132	198,36
451,565	156,23
451,998	142,19
452,431	153,89
452,864	116,44
453,297	172,61
453,73	95,38
454,163	284,96
454,596	160,91
455,029	177,3
455,462	149,21
455,895	224,11
456,327	214,74
456,76	107,08
457,193	135,17
457,625	280,28
458,058	43,89
458,49	132,83
458,923	177,3
459,355	214,74
459,787	186,66
460,22	151,55
460,652	181,98
461,084	114,1
461,516	240,49
461,948	196,02
462,381	205,38
462,813	181,98
463,245	97,72
463,676	146,87
464,108	163,25
464,54	121,12
464,972	174,96
465,404	139,85
465,835	217,08
466,267	240,49
466,699	235,81
467,13	189
467,562	177,3
467,993	219,43
468,424	217,08
468,856	135,17
469,287	261,55
469,718	144,53
470,15	132,83
470,581	177,3
471,012	404,33
471,443	455,82
471,874	551,78
472,305	341,13
472,736	315,39
473,167	252,19
473,598	287,3
474,028	76,65
474,459	212,4
474,89	151,55
475,32	139,85
475,751	184,32
476,182	266,24
476,612	193,68
477,043	135,17
477,473	111,76
477,903	137,51
478,334	160,91
478,764	315,39
479,194	228,79
479,624	205,38
480,054	146,87
480,484	224,11
480,914	310,71
481,344	137,51
481,774	196,02
482,204	268,58
482,634	254,53
483,064	359,86
483,494	254,53
483,923	210,06
484,353	254,53
484,782	191,34
485,212	277,94
485,642	214,74
486,071	289,64
486,5	256,87
486,93	432,41
487,359	418,37
487,788	327,09
488,217	294,32
488,647	97,72
489,076	210,06
489,505	240,49
489,934	212,4
490,363	252,19
490,792	165,59
491,221	282,62
491,649	226,45
492,078	189
492,507	57,93
492,936	207,72
493,364	135,17
493,793	224,11
494,221	163,25
494,65	289,64
495,078	228,79
495,507	189
495,935	233,47
496,363	322,41
496,791	299
497,22	320,07
497,648	186,66
498,076	247,51
498,504	324,75
498,932	186,66
499,36	214,74
499,788	165,59
500,216	165,59
500,643	263,9
501,071	336,45
501,499	198,36
501,927	240,49
502,354	193,68
502,782	125,8
503,209	331,77
503,637	434,75
504,064	1003,5
504,491	1172,02
504,919	1244,58
505,346	736,68
505,773	483,91
506,2	350,5
506,628	294,32
507,055	259,21
507,482	310,71
507,909	404,33
508,335	666,47
508,762	802,22
509,189	652,42
509,616	519,01
510,043	341,13
510,469	359,86
510,896	320,07
511,323	245,17
511,749	514,33
512,176	1118,19
512,602	1328,84
513,028	1193,09
513,455	673,49
513,881	392,62
514,307	343,47
514,733	469,86
515,16	610,29
515,586	680,51
516,012	715,62
516,438	624,34
516,864	533,06
517,29	359,86
517,715	263,9
518,141	189
518,567	310,71
518,993	284,96
519,418	523,69
519,844	640,72
520,269	645,4
520,695	640,72
521,12	643,06
521,546	729,66
521,971	645,4
522,396	413,69
522,822	399,65
523,247	357,52
523,672	327,09
524,097	331,77
524,522	172,61
524,947	184,32
525,372	252,19
525,797	160,91
526,222	191,34
526,647	282,62
527,071	235,81
527,496	214,74
527,921	247,51
528,345	233,47
528,77	336,45
529,194	219,43
529,619	165,59
530,043	291,98
530,468	252,19
530,892	310,71
531,316	376,24
531,74	338,79
532,164	266,24
532,589	327,09
533,013	715,62
533,437	1974,83
533,861	2812,74
534,284	3987,69
534,708	4256,85
535,132	4207,7
535,556	3121,69
535,98	1553,53
536,403	961,38
536,827	722,64
537,25	509,65
537,674	392,62
538,097	352,84
538,521	324,75
538,944	359,86
539,367	294,32
539,791	441,78
540,214	2192,5
540,637	4809,22
541,06	5841,39
541,483	4338,77
541,906	2063,77
542,329	1024,57
542,752	446,46
543,175	348,15
543,598	263,9
544,02	322,41
544,443	221,77
544,866	217,08
545,288	181,98
545,711	247,51
546,133	196,02
546,556	189
546,978	93,04
547,4	104,74
547,823	107,08
548,245	123,46
548,667	97,72
549,089	226,45
549,511	149,21
549,933	303,68
550,355	163,25
550,777	270,92
551,199	78,99
551,621	146,87
552,043	280,28
552,465	93,04
552,886	214,74
553,308	139,85
553,729	226,45
554,151	249,85
554,572	254,53
554,994	219,43
555,415	303,68
555,837	252,19
556,258	329,43
556,679	472,2
557,1	673,49
557,521	640,72
557,942	476,88
558,363	308,37
558,784	406,67
559,205	268,58
559,626	149,21
560,047	263,9
560,468	221,77
560,888	261,55
561,309	217,08
561,73	301,34
562,15	322,41
562,571	235,81
562,991	256,87
563,412	186,66
563,832	177,3
564,252	242,83
564,673	181,98
565,093	196,02
565,513	430,07
565,933	736,68
566,353	1218,83
566,773	1291,39
567,193	891,16
567,613	643,06
568,033	549,44
568,452	392,62
568,872	343,47
569,292	556,46
569,711	680,51
570,131	741,36
570,551	586,89
570,97	441,78
571,389	399,65
571,809	362,2
572,228	636,04
572,647	689,87
573,067	673,49
573,486	572,85
573,905	362,2
574,324	334,11
574,743	474,54
575,162	1586,3
575,581	2143,35
576	2412,51
576,419	3007
576,837	7032,72
577,256	9380,28
577,675	8916,86
578,093	4603,25
578,512	2428,89
578,93	1385,01
579,349	956,69
579,767	715,62
580,185	535,4
580,604	1050,32
581,022	1766,52
581,44	2045,04
581,858	2281,44
582,276	3697,46
582,694	5162,64
583,112	5736,07
583,53	3931,51
583,948	2698,05
584,366	2676,99
584,784	4343,45
585,201	50505,84
585,619	62894,29
586,037	62898,97
586,454	62894,29
586,872	62927,06
587,289	62894,29
587,707	52939,99
588,124	40549,2
588,541	62866,2
588,958	62859,18
589,376	62870,89
589,793	62152,34
590,21	31236,2
590,627	17984,09
591,044	12752,99
591,461	9501,99
591,878	6101,19
592,294	3929,17
592,711	3030,41
593,128	2339,95
593,545	2180,79
593,961	2702,73
594,378	22751,76
594,794	62880,25
595,211	62884,93
595,627	62814,71
596,043	62929,4
596,46	61527,42
596,876	31629,41
597,292	20722,52
597,708	33485,46
598,124	48287,01
598,54	53475,97
598,956	42337,37
599,372	22201,74
599,788	12584,48
600,204	7669,35
600,62	4551,76
601,035	2761,25
601,451	1761,84
601,867	1375,65
602,282	1263,3
602,698	2302,5
603,113	22222,8
603,529	48237,86
603,944	55413,94
604,359	47636,34
604,774	24486,1
605,19	12912,15
605,605	7329,97
606,02	4556,44
606,435	3215,31
606,85	3014,02
607,265	15166,09
607,68	62915,36
608,094	62873,23
608,509	62875,57
608,924	62852,16
609,338	62842,8
609,753	62905,99
610,168	62917,7
610,582	62917,7
610,997	62901,31
611,411	62817,05
611,825	59135,39
612,24	28394,79
612,654	16657,01
613,068	13455,15
613,482	13501,97
613,896	17317,04
614,31	62812,37
614,724	62770,24
615,138	62737,47
615,552	62859,18
615,966	62847,48
616,379	62901,31
616,793	62884,93
617,207	62831,1
617,62	62896,63
618,034	62575,98
618,447	32993,95
618,861	18267,3
619,274	11400,16
619,687	6588,02
620,101	3915,13
620,514	2400,8
620,927	2180,79
621,34	3615,54
621,753	33022,03
622,166	62917,7
622,579	62861,52
622,992	62901,31
623,405	60020,11
623,817	29368,46
624,23	15943,14
624,643	9672,85
625,055	5775,86
625,468	3568,73
625,88	3021,05
626,293	5892,88
626,705	56326,75
627,118	62882,59
627,53	62903,65
627,942	62950,46
628,354	62870,89
628,766	56043,54
629,179	26697,91
629,591	15854,2
630,003	9942,01
630,414	19329,9
630,826	53270,01
631,238	61782,54
631,65	62346,61
632,061	46236,7
632,473	26974,09
632,885	17457,47
633,296	46590,12
633,708	62983,23
634,119	62891,95
634,53	62868,54
634,942	62922,38
635,353	62920,04
635,764	62107,87
636,175	35329,8
636,586	21689,16
636,998	11968,91
637,408	7067,83
637,819	7802,76
638,23	55772,04
638,641	62910,67
639,052	62929,4
639,463	62936,42
639,873	62854,5
640,284	62898,97
640,694	62884,93
641,105	62908,33
641,515	62905,99
641,926	62870,89
642,336	62905,99
642,746	62917,7
643,157	62348,95
643,567	36631,14
643,977	17146,18
644,387	7519,56
644,797	4149,18
645,207	2744,86
645,617	2304,84
646,026	1850,78
646,436	1633,11
646,846	1502,04
647,256	1310,11
647,665	1399,06
648,075	1359,27
648,484	1377,99
648,894	1541,83
649,303	1710,35
649,713	2564,64
650,122	4909,86
650,531	52600,61
650,94	62948,12
651,349	62898,97
651,758	62861,52
652,167	62908,33
652,576	62877,91
652,985	62875,57
653,394	62896,63
653,803	62924,72
654,212	62924,72
654,62	62910,67
655,029	60733,98
655,437	31287,7
655,846	17291,29
656,254	10939,08
656,663	7219,97
657,071	4249,83
657,479	2658,26
657,888	1679,92
658,296	1331,18
658,704	1282,03
659,112	1651,83
659,52	4643,04
659,928	47137,8
660,336	62873,23
660,744	62849,82
661,152	62903,65
661,559	62889,61
661,967	37078,18
662,375	20296,54
662,782	12675,76
663,19	8149,16
663,597	4551,76
664,005	2215,9
664,412	1457,57
664,819	1132,23
665,226	1080,74
665,634	1272,67
666,041	1691,62
666,448	1696,3
666,855	1932,7
667,262	3444,68
667,669	36120,9
668,075	62845,14
668,482	62978,55
668,889	62898,97
669,296	62870,89
669,702	62976,21
670,109	55542,67
670,515	28500,12
670,922	19276,07
671,328	15992,3
671,734	55275,85
672,141	62898,97
672,547	62922,38
672,953	62908,33
673,359	62941,1
673,765	43275,92
674,171	23648,19
674,577	14697,98
674,983	9689,23
675,389	5214,13
675,795	2506,13
676,201	1375,65
676,606	942,65
677,012	696,89
677,417	558,8
677,823	483,91
678,228	465,18
678,634	380,92
679,039	432,41
679,444	441,78
679,849	329,43
680,255	320,07
680,66	287,3
681,065	401,99
681,47	401,99
681,875	294,32
682,28	387,94
682,684	329,43
683,089	287,3
683,494	310,71
683,899	338,79
684,303	273,26
684,708	322,41
685,112	357,52
685,517	303,68
685,921	411,35
686,325	289,64
686,729	259,21
687,134	355,18
687,538	380,92
687,942	394,97
688,346	394,97
688,75	413,69
689,154	409,01
689,558	460,5
689,961	406,67
690,365	561,14
690,769	462,84
691,173	783,49
691,576	832,65
691,98	1216,49
692,383	2892,32
692,786	32961,18
693,19	62971,53
693,593	62929,4
693,996	62898,97
694,399	62936,42
694,803	62922,38
695,206	39058,27
695,609	22374,94
696,012	15201,19
696,414	10433,52
696,817	5693,94
697,22	2714,44
697,623	1443,53
698,025	1031,59
698,428	830,31
698,831	687,53
699,233	743,71
699,636	664,13
700,038	682,85
700,44	792,86
700,842	923,93
701,245	1183,73
701,647	1502,04
702,049	2822,1
702,451	10398,42
702,853	33485,46
703,255	62908,33
703,657	62917,7
704,058	62861,52
704,46	62924,72
704,862	62898,97
705,264	62938,76
705,665	62905,99
706,067	49487,7
706,468	36652,2
706,869	24432,27
707,271	12736,61
707,672	5916,29
708,073	2999,98
708,474	1885,89
708,876	1237,56
709,277	893,5
709,678	762,43
710,079	577,53
710,479	537,74
710,88	439,44
711,281	425,39
711,682	387,94
712,082	469,86
712,483	341,13
712,883	481,57
713,284	322,41
713,684	233,47
714,085	299
714,485	425,39
714,885	378,58
715,285	462,84
715,686	383,26
716,086	446,46
716,486	474,54
716,886	1005,85
717,285	10033,29
717,685	28399,48
718,085	37113,29
718,485	36350,28
718,884	21422,34
719,284	12870,02
719,684	7954,9
720,083	4877,09
720,483	3414,26
720,882	2447,62
721,281	1672,9
721,68	905,2
722,08	692,21
722,479	633,7
722,878	703,92
723,277	872,43
723,676	1345,22
724,075	6447,59
724,474	54798,38
724,872	62891,95
725,271	62868,54
725,67	62845,14
726,068	62931,74
726,467	55877,36
726,865	31460,9
727,264	19751,2
727,662	14169,02
728,061	9729,02
728,459	5707,98
728,857	2714,44
729,255	1307,77
729,653	785,83
730,051	420,71
730,449	483,91
730,847	324,75
731,245	399,65
731,643	291,98
732,041	224,11
732,438	343,47
732,836	282,62
733,233	156,23
733,631	266,24
734,028	252,19
734,426	315,39
734,823	219,43
735,22	165,59
735,617	242,83
736,015	165,59
736,412	142,19
736,809	107,08
737,206	287,3
737,603	189
737,999	179,64
738,396	172,61
738,793	95,38
739,19	15,8
739,586	210,06
739,983	144,53
740,379	151,55
740,776	200,7
741,172	221,77
741,568	146,87
741,965	172,61
742,361	181,98
742,757	327,09
743,153	465,18
743,549	3498,52
743,945	22000,45
744,341	36764,55
744,737	43224,43
745,133	31617,71
745,528	17860,04
745,924	11025,68
746,32	6691,01
