Data from Subt10__10__15-58-12-043.txt Node

Date: Thu Apr 21 15:58:12 CEST 2022
User: jeppe
Spectrometer: FLMS05814
Trigger mode: 0
Integration Time (sec): 1,000000E-1
Scans to average: 1
Electric dark correction enabled: true
Nonlinearity correction enabled: false
Boxcar width: 0
XAxis mode: Wavelengths
Number of Pixels in Spectrum: 2048
>>>>>Begin Spectral Data<<<<<
188,012	70,95
188,47	70,95
188,927	70,95
189,385	-43,74
189,842	-27,36
190,3	-32,04
190,757	21,8
191,215	24,14
191,672	26,48
192,129	24,14
192,586	-120,98
193,044	26,48
193,501	-64,8
193,958	169,25
194,415	73,29
194,872	-57,78
195,329	-8,63
195,787	-43,74
196,244	21,8
196,7	-13,31
197,157	-46,08
197,614	47,54
198,071	-67,14
198,528	40,52
198,985	84,99
199,441	-8,63
199,898	94,35
200,355	-8,63
200,812	49,88
201,268	190,31
201,725	103,71
202,181	70,95
202,638	35,84
203,094	-6,29
203,551	-6,29
204,007	49,88
204,463	-34,38
204,92	5,41
205,376	-39,06
205,832	-29,7
206,288	-85,87
206,744	49,88
207,201	70,95
207,657	56,9
208,113	33,5
208,569	14,77
209,025	92,01
209,481	113,08
209,937	99,03
210,392	49,88
210,848	33,5
211,304	52,22
211,76	59,24
212,215	-8,63
212,671	73,29
213,127	42,86
213,582	38,18
214,038	101,37
214,494	49,88
214,949	94,35
215,404	110,74
215,86	63,93
216,315	10,09
216,771	120,1
217,226	70,95
217,681	80,31
218,136	19,46
218,592	96,69
219,047	103,71
219,502	-15,65
219,957	-6,29
220,412	82,65
220,867	26,48
221,322	77,97
221,777	68,61
222,232	35,84
222,687	24,14
223,142	-13,31
223,596	-25,01
224,051	87,33
224,506	108,4
224,96	63,93
225,415	49,88
225,87	82,65
226,324	82,65
226,779	-53,1
227,233	47,54
227,688	31,16
228,142	33,5
228,597	-3,95
229,051	77,97
229,505	5,41
229,959	31,16
230,414	103,71
230,868	26,48
231,322	59,24
231,776	101,37
232,23	40,52
232,684	33,5
233,138	24,14
233,592	-1,61
234,046	-8,63
234,5	-15,65
234,954	26,48
235,408	77,97
235,861	-64,8
236,315	-71,83
236,769	31,16
237,222	70,95
237,676	-76,51
238,13	84,99
238,583	63,93
239,037	12,43
239,49	35,84
239,944	61,59
240,397	136,48
240,85	-3,95
241,304	96,69
241,757	75,63
242,21	-29,7
242,663	5,41
243,117	42,86
243,57	-29,7
244,023	49,88
244,476	33,5
244,929	106,06
245,382	56,9
245,835	19,46
246,288	176,27
246,741	115,42
247,193	54,56
247,646	-10,97
248,099	66,27
248,552	47,54
249,004	-39,06
249,457	84,99
249,909	28,82
250,362	61,59
250,814	108,4
251,267	89,67
251,719	63,93
252,172	42,86
252,624	-32,04
253,076	17,12
253,529	87,33
253,981	28,82
254,433	45,2
254,885	-20,33
255,337	127,12
255,79	45,2
256,242	-10,97
256,694	84,99
257,146	24,14
257,598	68,61
258,049	-8,63
258,501	-32,04
258,953	87,33
259,405	-10,97
259,857	96,69
260,308	47,54
260,76	-81,19
261,212	129,46
261,663	28,82
262,115	40,52
262,566	21,8
263,018	96,69
263,469	38,18
263,92	124,78
264,372	59,24
264,823	92,01
265,274	-53,1
265,726	-34,38
266,177	180,95
266,628	59,24
267,079	47,54
267,53	110,74
267,981	35,84
268,432	49,88
268,883	49,88
269,334	-8,63
269,785	70,95
270,236	56,9
270,687	82,65
271,137	54,56
271,588	-15,65
272,039	31,16
272,489	92,01
272,94	75,63
273,391	66,27
273,841	-53,1
274,292	143,5
274,742	-3,95
275,192	134,14
275,643	-34,38
276,093	7,75
276,543	87,33
276,994	89,67
277,444	-95,23
277,894	-39,06
278,344	10,09
278,794	35,84
279,244	84,99
279,694	33,5
280,144	24,14
280,594	52,22
281,044	-17,99
281,494	19,46
281,944	-1,61
282,394	21,8
282,843	141,16
283,293	-3,95
283,743	63,93
284,192	-60,12
284,642	17,12
285,091	134,14
285,541	143,5
285,99	117,76
286,44	3,07
286,889	99,03
287,338	77,97
287,788	82,65
288,237	68,61
288,686	59,24
289,135	24,14
289,584	73,29
290,034	84,99
290,483	-6,29
290,932	54,56
291,381	49,88
291,83	-32,04
292,278	94,35
292,727	49,88
293,176	14,77
293,625	73,29
294,074	40,52
294,522	113,08
294,971	26,48
295,42	28,82
295,868	66,27
296,317	77,97
296,765	10,09
297,214	178,61
297,662	101,37
298,11	94,35
298,559	68,61
299,007	0,73
299,455	101,37
299,903	28,82
300,352	56,9
300,8	106,06
301,248	136,48
301,696	38,18
302,144	33,5
302,592	-25,01
303,04	-48,42
303,488	-46,08
303,936	12,43
304,383	87,33
304,831	68,61
305,279	24,14
305,727	87,33
306,174	73,29
306,622	82,65
307,069	35,84
307,517	138,82
307,964	-34,38
308,412	42,86
308,859	14,77
309,306	75,63
309,754	80,31
310,201	129,46
310,648	82,65
311,096	87,33
311,543	40,52
311,99	33,5
312,437	19,46
312,884	0,73
313,331	171,59
313,778	40,52
314,225	129,46
314,672	164,57
315,118	47,54
315,565	59,24
316,012	17,12
316,459	-32,04
316,905	26,48
317,352	12,43
317,798	-29,7
318,245	70,95
318,691	80,31
319,138	56,9
319,584	35,84
320,031	24,14
320,477	47,54
320,923	234,78
321,37	82,65
321,816	5,41
322,262	24,14
322,708	-8,63
323,154	19,46
323,6	38,18
324,046	61,59
324,492	94,35
324,938	47,54
325,384	82,65
325,83	19,46
326,276	73,29
326,721	54,56
327,167	82,65
327,613	70,95
328,058	33,5
328,504	127,12
328,949	-17,99
329,395	80,31
329,84	-6,29
330,286	-1,61
330,731	-27,36
331,177	108,4
331,622	77,97
332,067	59,24
332,512	-27,36
332,957	17,12
333,403	59,24
333,848	35,84
334,293	-53,1
334,738	-10,97
335,183	33,5
335,628	73,29
336,072	61,59
336,517	59,24
336,962	-88,21
337,407	103,71
337,852	122,44
338,296	75,63
338,741	17,12
339,185	59,24
339,63	99,03
340,074	-55,44
340,519	68,61
340,963	145,84
341,408	45,2
341,852	70,95
342,296	152,87
342,741	166,91
343,185	199,68
343,629	42,86
344,073	92,01
344,517	101,37
344,961	206,7
345,405	82,65
345,849	211,38
346,293	300,32
346,737	276,91
347,181	321,38
347,624	379,9
348,068	349,47
348,512	230,1
348,955	300,32
349,399	297,98
349,843	230,1
350,286	218,4
350,73	148,19
351,173	70,95
351,617	113,08
352,06	94,35
352,503	143,5
352,946	220,74
353,39	178,61
353,833	171,59
354,276	157,55
354,719	213,72
355,162	180,95
355,605	19,46
356,048	138,82
356,491	42,86
356,934	122,44
357,377	-15,65
357,82	94,35
358,262	113,08
358,705	68,61
359,148	-10,97
359,59	251,17
360,033	267,55
360,475	162,23
360,918	358,83
361,36	164,57
361,803	169,25
362,245	169,25
362,688	59,24
363,13	101,37
363,572	162,23
364,014	38,18
364,456	70,95
364,899	77,97
365,341	42,86
365,783	77,97
366,225	10,09
366,667	35,84
367,108	26,48
367,55	54,56
367,992	87,33
368,434	-43,74
368,876	-27,36
369,317	56,9
369,759	38,18
370,201	63,93
370,642	92,01
371,084	110,74
371,525	117,76
371,966	113,08
372,408	19,46
372,849	94,35
373,29	-8,63
373,732	52,22
374,173	89,67
374,614	-25,01
375,055	54,56
375,496	94,35
375,937	19,46
376,378	-32,04
376,819	63,93
377,26	5,41
377,701	101,37
378,142	120,1
378,583	14,77
379,023	84,99
379,464	19,46
379,905	-32,04
380,345	-8,63
380,786	38,18
381,226	47,54
381,667	122,44
382,107	113,08
382,548	92,01
382,988	96,69
383,428	92,01
383,868	63,93
384,309	-46,08
384,749	10,09
385,189	82,65
385,629	38,18
386,069	75,63
386,509	122,44
386,949	7,75
387,389	42,86
387,829	77,97
388,268	-34,38
388,708	-8,63
389,148	24,14
389,588	40,52
390,027	82,65
390,467	-29,7
390,906	17,12
391,346	31,16
391,785	82,65
392,225	24,14
392,664	84,99
393,103	-3,95
393,543	49,88
393,982	84,99
394,421	42,86
394,86	40,52
395,299	-20,33
395,738	12,43
396,177	-13,31
396,616	99,03
397,055	21,8
397,494	-32,04
397,933	54,56
398,372	21,8
398,81	84,99
399,249	40,52
399,688	10,09
400,126	-3,95
400,565	157,55
401,004	138,82
401,442	40,52
401,88	19,46
402,319	-8,63
402,757	-3,95
403,195	-3,95
403,634	-20,33
404,072	7,75
404,51	115,42
404,948	28,82
405,386	-60,12
405,824	5,41
406,262	33,5
406,7	87,33
407,138	-20,33
407,576	56,9
408,014	124,78
408,452	-1,61
408,889	120,1
409,327	-41,4
409,765	-104,59
410,202	101,37
410,64	131,8
411,077	42,86
411,515	14,77
411,952	47,54
412,389	70,95
412,827	-1,61
413,264	-8,63
413,701	24,14
414,138	42,86
414,575	47,54
415,013	117,76
415,45	52,22
415,887	59,24
416,324	84,99
416,76	42,86
417,197	31,16
417,634	115,42
418,071	115,42
418,508	-13,31
418,944	24,14
419,381	-6,29
419,818	106,06
420,254	45,2
420,691	75,63
421,127	38,18
421,563	120,1
422	-43,74
422,436	38,18
422,872	68,61
423,309	7,75
423,745	66,27
424,181	-71,83
424,617	115,42
425,053	129,46
425,489	89,67
425,925	35,84
426,361	45,2
426,797	106,06
427,233	89,67
427,668	122,44
428,104	56,9
428,54	-55,44
428,975	49,88
429,411	80,31
429,847	150,53
430,282	28,82
430,717	75,63
431,153	106,06
431,588	-17,99
432,024	106,06
432,459	73,29
432,894	-29,7
433,329	124,78
433,764	134,14
434,199	92,01
434,634	94,35
435,069	24,14
435,504	7,75
435,939	31,16
436,374	-13,31
436,809	56,9
437,244	-64,8
437,678	-55,44
438,113	40,52
438,548	24,14
438,982	152,87
439,417	73,29
439,851	14,77
440,286	92,01
440,72	14,77
441,154	77,97
441,589	56,9
442,023	7,75
442,457	-27,36
442,891	115,42
443,326	63,93
443,76	59,24
444,194	75,63
444,628	80,31
445,062	-6,29
445,495	141,16
445,929	68,61
446,363	145,84
446,797	47,54
447,23	31,16
447,664	108,4
448,098	129,46
448,531	33,5
448,965	101,37
449,398	63,93
449,832	-29,7
450,265	89,67
450,698	-32,04
451,132	-22,67
451,565	-17,99
451,998	84,99
452,431	169,25
452,864	-15,65
453,297	10,09
453,73	-36,72
454,163	127,12
454,596	3,07
455,029	31,16
455,462	70,95
455,895	66,27
456,327	17,12
456,76	-6,29
457,193	-10,97
457,625	136,48
458,058	-27,36
458,49	66,27
458,923	59,24
459,355	61,59
459,787	66,27
460,22	-22,67
460,652	14,77
461,084	-34,38
461,516	54,56
461,948	63,93
462,381	42,86
462,813	40,52
463,245	-29,7
463,676	103,71
464,108	33,5
464,54	47,54
464,972	-39,06
465,404	24,14
465,835	110,74
466,267	141,16
466,699	113,08
467,13	33,5
467,562	5,41
467,993	56,9
468,424	0,73
468,856	-76,51
469,287	110,74
469,718	75,63
470,15	-6,29
470,581	-13,31
471,012	131,8
471,443	-17,99
471,874	113,08
472,305	7,75
472,736	134,14
473,167	7,75
473,598	99,03
474,028	-46,08
474,459	94,35
474,89	12,43
475,32	-64,8
475,751	10,09
476,182	26,48
476,612	89,67
477,043	-25,01
477,473	-6,29
477,903	17,12
478,334	-8,63
478,764	150,53
479,194	106,06
479,624	45,2
480,054	24,14
480,484	148,19
480,914	131,8
481,344	-39,06
481,774	61,59
482,204	52,22
482,634	61,59
483,064	56,9
483,494	5,41
483,923	-41,4
484,353	117,76
484,782	59,24
485,212	110,74
485,642	26,48
486,071	138,82
486,5	24,14
486,93	92,01
487,359	28,82
487,788	33,5
488,217	169,25
488,647	54,56
489,076	80,31
489,505	40,52
489,934	7,75
490,363	33,5
490,792	10,09
491,221	117,76
491,649	12,43
492,078	47,54
492,507	-104,59
492,936	-20,33
493,364	-53,1
493,793	54,56
494,221	14,77
494,65	24,14
495,078	75,63
495,507	54,56
495,935	14,77
496,363	12,43
496,791	61,59
497,22	115,42
497,648	24,14
498,076	14,77
498,504	138,82
498,932	14,77
499,36	143,5
499,788	73,29
500,216	-3,95
500,643	108,4
501,071	56,9
501,499	-29,7
501,927	113,08
502,354	-1,61
502,782	103,71
503,209	68,61
503,637	42,86
504,064	183,29
504,491	117,76
504,919	169,25
505,346	152,87
505,773	150,53
506,2	141,16
506,628	61,59
507,055	183,29
507,482	115,42
507,909	92,01
508,335	54,56
508,762	75,63
509,189	21,8
509,616	101,37
510,043	94,35
510,469	84,99
510,896	108,4
511,323	-6,29
511,749	-32,04
512,176	103,71
512,602	38,18
513,028	178,61
513,455	180,95
513,881	164,57
514,307	190,31
514,733	108,4
515,16	148,19
515,586	45,2
516,012	155,21
516,438	115,42
516,864	66,27
517,29	192,66
517,715	24,14
518,141	103,71
518,567	82,65
518,993	87,33
519,418	115,42
519,844	131,8
520,269	108,4
520,695	117,76
521,12	124,78
521,546	54,56
521,971	145,84
522,396	82,65
522,822	99,03
523,247	171,59
523,672	14,77
524,097	131,8
524,522	75,63
524,947	82,65
525,372	143,5
525,797	26,48
526,222	75,63
526,647	17,12
527,071	169,25
527,496	17,12
527,921	89,67
528,345	61,59
528,77	47,54
529,194	150,53
529,619	14,77
530,043	145,84
530,468	-3,95
530,892	10,09
531,316	68,61
531,74	82,65
532,164	38,18
532,589	141,16
533,013	94,35
533,437	138,82
533,861	202,02
534,284	290,96
534,708	431,39
535,132	450,11
535,556	567,14
535,98	400,96
536,403	337,77
536,827	384,58
537,25	202,02
537,674	77,97
538,097	103,71
538,521	26,48
538,944	110,74
539,367	87,33
539,791	157,55
540,214	260,53
540,637	258,19
541,06	267,55
541,483	471,18
541,906	478,2
542,329	412,67
542,752	192,66
543,175	110,74
543,598	77,97
544,02	80,31
544,443	26,48
544,866	-1,61
545,288	38,18
545,711	7,75
546,133	106,06
546,556	-41,4
546,978	-69,48
547,4	-62,46
547,823	56,9
548,245	7,75
548,667	-50,76
549,089	106,06
549,511	-15,65
549,933	84,99
550,355	10,09
550,777	45,2
551,199	21,8
551,621	-25,01
552,043	33,5
552,465	61,59
552,886	141,16
553,308	-128
553,729	106,06
554,151	45,2
554,572	12,43
554,994	-109,27
555,415	92,01
555,837	110,74
556,258	-13,31
556,679	96,69
557,1	68,61
557,521	94,35
557,942	192,66
558,363	131,8
558,784	166,91
559,205	120,1
559,626	-74,17
560,047	101,37
560,468	14,77
560,888	80,31
561,309	66,27
561,73	103,71
562,15	108,4
562,571	99,03
562,991	42,86
563,412	5,41
563,832	49,88
564,252	21,8
564,673	87,33
565,093	73,29
565,513	84,99
565,933	129,46
566,353	138,82
566,773	124,78
567,193	94,35
567,613	136,48
568,033	150,53
568,452	234,78
568,872	96,69
569,292	77,97
569,711	159,89
570,131	106,06
570,551	150,53
570,97	185,63
571,389	166,91
571,809	120,1
572,228	68,61
572,647	82,65
573,067	19,46
573,486	56,9
573,905	113,08
574,324	148,19
574,743	164,57
575,162	241,81
575,581	199,68
576	314,36
576,419	398,62
576,837	492,24
577,256	791,83
577,675	775,45
578,093	763,75
578,512	899,5
578,93	681,83
579,349	667,78
579,767	375,22
580,185	192,66
580,604	251,17
581,022	202,02
581,44	176,27
581,858	377,56
582,276	342,45
582,694	482,88
583,112	599,91
583,53	688,85
583,948	625,65
584,366	768,43
584,784	906,52
585,201	4571,8
585,619	9882,47
586,037	14694,61
586,454	20585,74
586,872	23083,09
587,289	26708,58
587,707	26947,32
588,124	22771,8
588,541	14895,9
588,958	9711,61
589,376	8890,09
589,793	8630,29
590,21	9154,57
590,627	9302,02
591,044	7553,64
591,461	4656,06
591,878	2458,29
592,294	1554,85
592,711	1210,79
593,128	927,58
593,545	789,49
593,961	730,98
594,378	2460,63
594,794	5713,98
595,211	8258,14
595,627	11794,69
596,043	13990,11
596,46	15415,5
596,876	16073,19
597,292	14142,25
597,708	9746,72
598,124	5845,05
598,54	4555,41
598,956	4550,73
599,372	4407,96
599,788	4824,58
600,204	4403,28
600,62	3153,43
601,035	1842,73
601,451	1044,61
601,867	658,42
602,282	639,7
602,698	656,08
603,113	1536,12
603,529	2383,4
603,944	3195,56
604,359	3930,49
604,774	4216,04
605,19	4740,32
605,605	4450,09
606,02	3392,17
606,435	2177,43
606,85	1299,73
607,265	1992,53
607,68	5470,56
608,094	7586,41
608,509	10774,22
608,924	13290,29
609,338	15012,93
609,753	20637,23
610,168	21559,41
610,582	21945,59
610,997	21821,55
611,411	19509,1
611,825	20314,24
612,24	18631,4
612,654	13763,08
613,068	7588,75
613,482	3998,37
613,896	2884,27
614,31	8859,66
614,724	13667,12
615,138	20318,92
615,552	28227,59
615,966	29133,38
616,379	34525,97
616,793	34767,05
617,207	31221,14
617,62	23633,12
618,034	14966,12
618,447	11689,37
618,861	10249,94
619,274	8178,56
619,687	5203,74
620,101	2807,03
620,514	1594,64
620,927	1063,33
621,34	988,44
621,753	2898,31
622,166	4082,63
622,579	5390,99
622,992	7773,65
623,405	7673,01
623,817	8684,12
624,23	8866,68
624,643	7602,79
625,055	4927,56
625,468	2516,81
625,88	1510,38
626,293	1323,13
626,705	4642,01
627,118	6547,21
627,53	9802,89
627,942	13114,75
628,354	13610,95
628,766	14774,19
629,179	14561,2
629,591	12517,92
630,003	8183,24
630,414	5046,93
630,826	4176,25
631,238	4454,77
631,65	5660,15
632,061	6175,06
632,473	6720,41
632,885	7195,54
633,296	9400,32
633,708	14065,01
634,119	15775,94
634,53	20808,09
634,942	23504,39
635,353	25102,98
635,764	25936,21
636,175	24054,42
636,586	18795,23
636,998	10891,24
637,408	5175,66
637,819	3111,3
638,23	6402,1
638,641	10439,52
639,052	14842,07
639,463	21088,96
639,873	24794,03
640,284	42247,4
640,694	49463,27
641,105	55838,89
641,515	59237,35
641,926	56845,32
642,336	56592,54
642,746	54401,8
643,157	50516,51
643,567	36997,58
643,977	18238,19
644,387	7996
644,797	3928,15
645,207	2182,11
645,617	1625,06
646,026	1154,62
646,436	962,69
646,846	829,28
647,256	803,54
647,665	656,08
648,075	723,96
648,484	693,53
648,894	702,89
649,303	632,68
649,713	730,98
650,122	1032,91
650,531	5060,97
650,94	10586,97
651,349	15268,05
651,758	22224,12
652,167	24953,18
652,576	26909,87
652,985	27619,05
653,394	27904,6
653,803	25212,98
654,212	18792,89
654,62	13919,9
655,029	10767,2
655,437	10303,77
655,846	9421,39
656,254	8789,44
656,663	6334,22
657,071	3488,13
657,479	1770,18
657,888	1121,85
658,296	782,47
658,704	569,48
659,112	698,21
659,52	836,3
659,928	3179,18
660,336	4239,44
660,744	6175,06
661,152	8649,01
661,559	8817,53
661,967	9503,31
662,375	9699,91
662,782	9362,87
663,19	7696,41
663,597	4410,3
664,005	2142,32
664,412	1231,85
664,819	635,02
665,226	492,24
665,634	419,69
666,041	548,42
666,448	520,33
666,855	520,33
667,262	635,02
667,669	3258,76
668,075	6802,33
668,482	9517,35
668,889	13627,33
669,296	15270,39
669,702	16361,08
670,109	16744,92
670,515	16602,15
670,922	15024,63
671,328	11085,51
671,734	8613,9
672,141	6842,12
672,547	7881,32
672,953	10046,31
673,359	9692,89
673,765	10874,86
674,171	10659,53
674,577	9948,01
674,983	8482,83
675,389	5475,24
675,795	2636,17
676,201	1316,11
676,606	649,06
677,012	564,8
677,417	351,81
677,823	335,43
678,228	199,68
678,634	185,63
679,039	143,5
679,444	295,64
679,849	244,15
680,255	134,14
680,66	136,48
681,065	171,59
681,47	169,25
681,875	162,23
682,28	176,27
682,684	183,29
683,089	162,23
683,494	150,53
683,899	129,46
684,303	145,84
684,708	237,13
685,112	152,87
685,517	138,82
685,921	145,84
686,325	148,19
686,729	63,93
687,134	209,04
687,538	230,1
687,942	185,63
688,346	113,08
688,75	244,15
689,154	199,68
689,558	171,59
689,961	183,29
690,365	258,19
690,769	99,03
691,173	307,34
691,576	166,91
691,98	396,28
692,383	454,8
692,786	2659,58
693,19	5159,27
693,593	7162,77
693,996	10512,08
694,399	11918,74
694,803	12803,46
695,206	12656,01
695,609	12014,7
696,012	11928,1
696,414	9667,14
696,817	5695,25
697,22	2701,71
697,623	1412,07
698,025	840,98
698,428	496,92
698,831	494,58
699,233	450,11
699,636	351,81
700,038	248,83
700,44	356,49
700,842	478,2
701,245	445,43
701,647	510,97
702,049	623,31
702,451	1121,85
702,853	2977,89
703,255	11448,29
703,657	15356,99
704,058	21966,66
704,46	30179,6
704,862	29447,01
705,264	31691,58
705,665	30664,09
706,067	28571,65
706,468	27928
706,869	20904,06
707,271	11321,9
707,672	5227,15
708,073	2603,41
708,474	1585,27
708,876	1011,84
709,277	775,45
709,678	574,16
710,079	382,24
710,479	340,11
710,88	307,34
711,281	253,51
711,682	199,68
712,082	295,64
712,483	17,12
712,883	276,91
713,284	211,38
713,684	190,31
714,085	89,67
714,485	183,29
714,885	288,62
715,285	302,66
715,686	110,74
716,086	251,17
716,486	206,7
716,886	164,57
717,285	901,84
717,685	1283,34
718,085	1489,31
718,485	2221,9
718,884	2378,72
719,284	2460,63
719,684	2591,7
720,083	2238,28
720,483	2409,14
720,882	2238,28
721,281	1667,19
721,68	824,6
722,08	560,12
722,479	335,43
722,878	293,3
723,277	213,72
723,676	363,51
724,075	932,26
724,474	3923,47
724,872	5386,3
725,271	7125,32
725,67	9905,88
726,068	10315,47
726,467	10760,17
726,865	10638,47
727,264	10001,84
727,662	10558,89
728,061	9582,88
728,459	5999,52
728,857	3125,35
729,255	1440,16
729,653	702,89
730,051	377,56
730,449	356,49
730,847	197,34
731,245	244,15
731,643	225,42
732,041	152,87
732,438	152,87
732,836	127,12
733,233	122,44
733,631	166,91
734,028	87,33
734,426	255,85
734,823	157,55
735,22	169,25
735,617	202,02
736,015	110,74
736,412	82,65
736,809	28,82
737,206	166,91
737,603	59,24
737,999	178,61
738,396	131,8
738,793	45,2
739,19	33,5
739,586	124,78
739,983	66,27
740,379	96,69
740,776	113,08
741,172	75,63
741,568	143,5
741,965	56,9
742,361	45,2
742,757	84,99
743,153	131,8
743,549	461,82
743,945	1156,96
744,341	1484,63
744,737	1856,78
745,133	2388,08
745,528	2212,54
745,924	2212,54
746,32	2161,05
746,715	2039,34
747,111	2144,66
747,506	2142,32
747,901	1444,84
748,297	833,96
748,692	543,74
749,087	426,71
749,482	571,82
749,877	602,25
750,272	620,97
750,667	508,63
751,062	468,84
751,457	501,61
751,852	639,7
752,247	681,83
752,641	461,82
753,036	335,43
753,43	246,49
753,825	241,81
754,219	412,67
754,614	592,89
755,008	543,74
755,402	691,19
755,796	674,81
756,19	630,34
756,584	560,12
756,978	738
757,372	571,82
757,766	534,37
758,16	354,15
758,554	234,78
758,948	103,71
759,341	66,27
759,735	38,18
760,128	66,27
760,522	77,97
760,915	38,18
761,308	84,99
761,702	73,29
762,095	54,56
762,488	54,56
