Data from Subt10__12__15-59-30-924.txt Node

Date: Thu Apr 21 15:59:30 CEST 2022
User: jeppe
Spectrometer: FLMS05814
Trigger mode: 0
Integration Time (sec): 1,000000E-1
Scans to average: 1
Electric dark correction enabled: true
Nonlinearity correction enabled: false
Boxcar width: 0
XAxis mode: Wavelengths
Number of Pixels in Spectrum: 2048
>>>>>Begin Spectral Data<<<<<
188,012	7,46
188,47	7,46
188,927	7,46
189,385	0,44
189,842	-65,1
190,3	-18,29
190,757	19,16
191,215	30,87
191,672	-13,6
192,129	33,21
192,586	-53,39
193,044	73
193,501	-123,61
193,958	145,55
194,415	87,04
194,872	-76,8
195,329	-13,6
195,787	-74,46
196,244	5,12
196,7	-20,63
197,157	0,44
197,614	49,59
198,071	-93,18
198,528	42,57
198,985	220,45
199,441	70,65
199,898	105,76
200,355	84,7
200,812	138,53
201,268	243,85
201,725	138,53
202,181	143,21
202,638	180,66
203,094	33,21
203,551	150,23
204,007	126,83
204,463	101,08
204,92	161,94
205,376	63,63
205,832	94,06
206,288	159,6
206,744	75,34
207,201	40,23
207,657	150,23
208,113	42,57
208,569	110,44
209,025	168,96
209,481	157,25
209,937	150,23
210,392	157,25
210,848	117,47
211,304	164,28
211,76	117,47
212,215	129,17
212,671	122,15
213,127	150,23
213,582	126,83
214,038	173,64
214,494	183
214,949	112,78
215,404	220,45
215,86	197,04
216,315	56,61
216,771	225,13
217,226	168,96
217,681	204,07
218,136	129,17
218,592	185,34
219,047	143,21
219,502	56,61
219,957	80,02
220,412	192,36
220,867	150,23
221,322	157,25
221,777	122,15
222,232	112,78
222,687	180,66
223,142	58,95
223,596	9,8
224,051	227,47
224,506	199,38
224,96	171,3
225,415	175,98
225,87	175,98
226,324	129,17
226,779	124,49
227,233	129,17
227,688	19,16
228,142	154,91
228,597	42,57
229,051	157,25
229,505	42,57
229,959	112,78
230,414	117,47
230,868	147,89
231,322	112,78
231,776	190,02
232,23	143,21
232,684	157,25
233,138	108,1
233,592	105,76
234,046	77,68
234,5	133,85
234,954	154,91
235,408	166,62
235,861	73
236,315	54,27
236,769	91,72
237,222	143,21
237,676	94,06
238,13	131,51
238,583	229,81
239,037	56,61
239,49	213,43
239,944	124,49
240,397	145,55
240,85	98,74
241,304	180,66
241,757	47,25
242,21	204,07
242,663	84,7
243,117	94,06
243,57	21,5
244,023	129,17
244,476	80,02
244,929	183
245,382	63,63
245,835	250,88
246,288	234,49
246,741	171,3
247,193	119,81
247,646	80,02
248,099	164,28
248,552	75,34
249,004	58,95
249,457	122,15
249,909	140,87
250,362	194,7
250,814	183
251,267	171,3
251,719	138,53
252,172	145,55
252,624	56,61
253,076	115,13
253,529	129,17
253,981	103,42
254,433	171,3
254,885	42,57
255,337	236,83
255,79	145,55
256,242	138,53
256,694	138,53
257,146	152,57
257,598	87,04
258,049	51,93
258,501	98,74
258,953	98,74
259,405	30,87
259,857	190,02
260,308	91,72
260,76	2,78
261,212	154,91
261,663	96,4
262,115	68,31
262,566	61,29
263,018	213,43
263,469	154,91
263,92	157,25
264,372	208,75
264,823	89,38
265,274	183
265,726	131,51
266,177	150,23
266,628	35,55
267,079	178,32
267,53	175,98
267,981	0,44
268,432	159,6
268,883	103,42
269,334	122,15
269,785	154,91
270,236	159,6
270,687	77,68
271,137	126,83
271,588	129,17
272,039	68,31
272,489	218,11
272,94	147,89
273,391	183
273,841	23,84
274,292	119,81
274,742	77,68
275,192	220,45
275,643	70,65
276,093	124,49
276,543	117,47
276,994	143,21
277,444	84,7
277,894	84,7
278,344	157,25
278,794	187,68
279,244	110,44
279,694	143,21
280,144	147,89
280,594	140,87
281,044	147,89
281,494	145,55
281,944	30,87
282,394	136,19
282,843	49,59
283,293	131,51
283,743	136,19
284,192	40,23
284,642	98,74
285,091	213,43
285,541	51,93
285,99	133,85
286,44	124,49
286,889	183
287,338	80,02
287,788	119,81
288,237	119,81
288,686	133,85
289,135	122,15
289,584	185,34
290,034	131,51
290,483	103,42
290,932	63,63
291,381	220,45
291,83	126,83
292,278	108,1
292,727	23,84
293,176	108,1
293,625	213,43
294,074	161,94
294,522	143,21
294,971	154,91
295,42	140,87
295,868	178,32
296,317	147,89
296,765	147,89
297,214	262,58
297,662	204,07
298,11	126,83
298,559	229,81
299,007	108,1
299,455	152,57
299,903	140,87
300,352	115,13
300,8	133,85
301,248	119,81
301,696	138,53
302,144	112,78
302,592	119,81
303,04	138,53
303,488	-22,97
303,936	65,97
304,383	94,06
304,831	201,72
305,279	164,28
305,727	51,93
306,174	108,1
306,622	178,32
307,069	213,43
307,517	115,13
307,964	145,55
308,412	87,04
308,859	65,97
309,306	159,6
309,754	91,72
310,201	145,55
310,648	133,85
311,096	98,74
311,543	101,08
311,99	122,15
312,437	133,85
312,884	68,31
313,331	161,94
313,778	150,23
314,225	225,13
314,672	250,88
315,118	204,07
315,565	180,66
316,012	133,85
316,459	54,27
316,905	173,64
317,352	159,6
317,798	105,76
318,245	204,07
318,691	136,19
319,138	222,79
319,584	129,17
320,031	157,25
320,477	61,29
320,923	206,41
321,37	84,7
321,816	220,45
322,262	197,04
322,708	129,17
323,154	80,02
323,6	154,91
324,046	108,1
324,492	166,62
324,938	117,47
325,384	98,74
325,83	185,34
326,276	264,92
326,721	131,51
327,167	103,42
327,613	147,89
328,058	112,78
328,504	222,79
328,949	101,08
329,395	115,13
329,84	178,32
330,286	178,32
330,731	84,7
331,177	145,55
331,622	204,07
332,067	147,89
332,512	56,61
332,957	161,94
333,403	105,76
333,848	126,83
334,293	84,7
334,738	119,81
335,183	115,13
335,628	115,13
336,072	173,64
336,517	274,28
336,962	131,51
337,407	709,62
337,852	934,31
338,296	866,44
338,741	536,42
339,185	323,43
339,63	183
340,074	140,87
340,519	248,54
340,963	208,75
341,408	243,85
341,852	543,44
342,296	1491,36
342,741	1945,42
343,185	1505,4
343,629	597,28
344,073	487,27
344,517	363,22
344,961	1063,04
345,405	1783,93
345,849	2308,21
346,293	2605,46
346,737	2795,04
347,181	3300,59
347,624	3817,85
348,068	3298,25
348,512	2245,01
348,955	1119,21
349,399	686,22
349,843	543,44
350,286	821,97
350,73	964,74
351,173	1051,34
351,617	971,76
352,06	1425,83
352,503	2453,32
352,946	2935,47
353,39	2301,19
353,833	1011,55
354,276	573,87
354,719	384,29
355,162	236,83
355,605	84,7
356,048	243,85
356,491	194,7
356,934	218,11
357,377	185,34
357,82	187,68
358,262	211,09
358,705	140,87
359,148	339,82
359,59	1432,85
360,033	2476,73
360,475	2724,82
360,918	1910,32
361,36	1079,43
361,803	608,98
362,245	271,94
362,688	234,49
363,13	157,25
363,572	339,82
364,014	276,62
364,456	328,11
364,899	304,71
365,341	150,23
365,783	250,88
366,225	82,36
366,667	112,78
367,108	150,23
367,55	131,51
367,992	136,19
368,434	206,41
368,876	332,79
369,317	386,63
369,759	386,63
370,201	267,26
370,642	353,86
371,084	337,48
371,525	218,11
371,966	241,51
372,408	145,55
372,849	197,04
373,29	131,51
373,732	110,44
374,173	103,42
374,614	80,02
375,055	138,53
375,496	140,87
375,937	206,41
376,378	143,21
376,819	215,77
377,26	70,65
377,701	161,94
378,142	124,49
378,583	147,89
379,023	150,23
379,464	42,57
379,905	87,04
380,345	129,17
380,786	70,65
381,226	192,36
381,667	143,21
382,107	171,3
382,548	159,6
382,988	140,87
383,428	178,32
383,868	96,4
384,309	49,59
384,749	30,87
385,189	133,85
385,629	157,25
386,069	101,08
386,509	101,08
386,949	110,44
387,389	105,76
387,829	243,85
388,268	0,44
388,708	117,47
389,148	257,9
389,588	157,25
390,027	117,47
390,467	35,55
390,906	136,19
391,346	44,91
391,785	159,6
392,225	157,25
392,664	178,32
393,103	51,93
393,543	103,42
393,982	89,38
394,421	112,78
394,86	152,57
395,299	91,72
395,738	73
396,177	91,72
396,616	96,4
397,055	110,44
397,494	65,97
397,933	220,45
398,372	65,97
398,81	110,44
399,249	229,81
399,688	147,89
400,126	117,47
400,565	140,87
401,004	150,23
401,442	56,61
401,88	150,23
402,319	154,91
402,757	82,36
403,195	80,02
403,634	2,78
404,072	105,76
404,51	131,51
404,948	154,91
405,386	136,19
405,824	119,81
406,262	138,53
406,7	171,3
407,138	122,15
407,576	136,19
408,014	215,77
408,452	61,29
408,889	227,47
409,327	150,23
409,765	84,7
410,202	166,62
410,64	178,32
411,077	147,89
411,515	96,4
411,952	143,21
412,389	98,74
412,827	110,44
413,264	56,61
413,701	157,25
414,138	166,62
414,575	84,7
415,013	197,04
415,45	178,32
415,887	201,72
416,324	150,23
416,76	140,87
417,197	126,83
417,634	183
418,071	152,57
418,508	98,74
418,944	133,85
419,381	54,27
419,818	260,24
420,254	190,02
420,691	229,81
421,127	138,53
421,563	117,47
422	112,78
422,436	82,36
422,872	154,91
423,309	220,45
423,745	161,94
424,181	77,68
424,617	234,49
425,053	229,81
425,489	119,81
425,925	152,57
426,361	166,62
426,797	199,38
427,233	138,53
427,668	201,72
428,104	204,07
428,54	229,81
428,975	73
429,411	197,04
429,847	311,73
430,282	168,96
430,717	124,49
431,153	248,54
431,588	82,36
432,024	124,49
432,459	110,44
432,894	171,3
433,329	147,89
433,764	164,28
434,199	143,21
434,634	173,64
435,069	175,98
435,504	187,68
435,939	98,74
436,374	129,17
436,809	147,89
437,244	61,29
437,678	54,27
438,113	140,87
438,548	108,1
438,982	187,68
439,417	117,47
439,851	159,6
440,286	159,6
440,72	70,65
441,154	164,28
441,589	152,57
442,023	192,36
442,457	119,81
442,891	138,53
443,326	229,81
443,76	208,75
444,194	225,13
444,628	197,04
445,062	164,28
445,495	260,24
445,929	199,38
446,363	145,55
446,797	124,49
447,23	143,21
447,664	136,19
448,098	190,02
448,531	112,78
448,965	166,62
449,398	255,56
449,832	101,08
450,265	208,75
450,698	143,21
451,132	150,23
451,565	129,17
451,998	192,36
452,431	241,51
452,864	91,72
453,297	185,34
453,73	61,29
454,163	199,38
454,596	145,55
455,029	243,85
455,462	140,87
455,895	147,89
456,327	175,98
456,76	124,49
457,193	129,17
457,625	190,02
458,058	173,64
458,49	168,96
458,923	87,04
459,355	206,41
459,787	185,34
460,22	105,76
460,652	206,41
461,084	194,7
461,516	262,58
461,948	267,26
462,381	199,38
462,813	136,19
463,245	140,87
463,676	185,34
464,108	220,45
464,54	133,85
464,972	239,17
465,404	154,91
465,835	197,04
466,267	257,9
466,699	264,92
467,13	138,53
467,562	206,41
467,993	150,23
468,424	227,47
468,856	91,72
469,287	248,54
469,718	143,21
470,15	218,11
470,581	264,92
471,012	487,27
471,443	470,89
471,874	597,28
472,305	456,84
472,736	311,73
473,167	213,43
473,598	246,2
474,028	173,64
474,459	159,6
474,89	152,57
475,32	183
475,751	208,75
476,182	211,09
476,612	168,96
477,043	87,04
477,473	122,15
477,903	138,53
478,334	136,19
478,764	274,28
479,194	199,38
479,624	222,79
480,054	234,49
480,484	154,91
480,914	264,92
481,344	166,62
481,774	285,98
482,204	293,01
482,634	246,2
483,064	307,05
483,494	215,77
483,923	257,9
484,353	227,47
484,782	199,38
485,212	393,65
485,642	201,72
486,071	288,32
486,5	339,82
486,93	447,48
487,359	417,05
487,788	309,39
488,217	332,79
488,647	241,51
489,076	281,3
489,505	295,35
489,934	239,17
490,363	213,43
490,792	145,55
491,221	222,79
491,649	199,38
492,078	232,15
492,507	112,78
492,936	215,77
493,364	159,6
493,793	194,7
494,221	168,96
494,65	335,14
495,078	239,17
495,507	204,07
495,935	220,45
496,363	197,04
496,791	234,49
497,22	295,35
497,648	197,04
498,076	197,04
498,504	297,69
498,932	264,92
499,36	206,41
499,788	150,23
500,216	185,34
500,643	267,26
501,071	278,96
501,499	220,45
501,927	271,94
502,354	192,36
502,782	215,77
503,209	323,43
503,637	442,8
504,064	1016,23
504,491	1208,16
504,919	1334,54
505,346	683,88
505,773	428,76
506,2	379,61
506,628	293,01
507,055	297,69
507,482	283,64
507,909	445,14
508,335	618,34
508,762	840,69
509,189	749,41
509,616	644,09
510,043	349,18
510,469	229,81
510,896	285,98
511,323	199,38
511,749	618,34
512,176	1140,28
512,602	1472,64
513,028	1147,3
513,455	704,94
513,881	503,65
514,307	285,98
514,733	475,57
515,16	576,21
515,586	718,98
516,012	758,77
516,438	601,96
516,864	520,04
517,29	332,79
517,715	262,58
518,141	213,43
518,567	311,73
518,993	384,29
519,418	475,57
519,844	639,41
520,269	594,93
520,695	658,13
521,12	676,85
521,546	740,05
521,971	733,03
522,396	475,57
522,822	456,84
523,247	438,12
523,672	194,7
524,097	391,31
524,522	300,03
524,947	192,36
525,372	257,9
525,797	159,6
526,222	220,45
526,647	218,11
527,071	211,09
527,496	201,72
527,921	300,03
528,345	246,2
528,77	283,64
529,194	293,01
529,619	180,66
530,043	260,24
530,468	283,64
530,892	452,16
531,316	358,54
531,74	372,58
532,164	253,22
532,589	297,69
533,013	658,13
533,437	2034,36
533,861	3127,39
534,284	4171,27
534,708	4424,05
535,132	4651,08
535,556	3340,38
535,98	1732,44
536,403	1046,66
536,827	714,3
537,25	454,5
537,674	407,69
538,097	440,46
538,521	365,56
538,944	293,01
539,367	316,41
539,791	433,44
540,214	2436,94
540,637	4828,96
541,06	6111,58
541,483	4592,57
541,906	2142,03
542,329	1065,38
542,752	637,06
543,175	328,11
543,598	365,56
544,02	164,28
544,443	271,94
544,866	220,45
545,288	175,98
545,711	180,66
546,133	194,7
546,556	119,81
546,978	75,34
547,4	159,6
547,823	246,2
548,245	187,68
548,667	47,25
549,089	103,42
549,511	105,76
549,933	246,2
550,355	129,17
550,777	314,07
551,199	255,56
551,621	124,49
552,043	236,83
552,465	168,96
552,886	201,72
553,308	147,89
553,729	311,73
554,151	129,17
554,572	215,77
554,994	257,9
555,415	229,81
555,837	283,64
556,258	426,42
556,679	599,62
557,1	681,53
557,521	644,09
557,942	456,84
558,363	304,71
558,784	351,52
559,205	220,45
559,626	178,32
560,047	243,85
560,468	171,3
560,888	185,34
561,309	206,41
561,73	248,54
562,15	262,58
562,571	278,96
562,991	215,77
563,412	103,42
563,832	154,91
564,252	267,26
564,673	281,3
565,093	262,58
565,513	419,39
565,933	775,16
566,353	1290,07
566,773	1371,99
567,193	946,02
567,613	754,09
568,033	538,76
568,452	379,61
568,872	288,32
569,292	559,83
569,711	716,64
570,131	819,63
570,551	545,78
570,97	445,14
571,389	351,52
571,809	431,1
572,228	620,68
572,647	718,98
573,067	744,73
573,486	662,81
573,905	297,69
574,324	372,58
574,743	632,38
575,162	1737,12
575,581	2350,34
576	2570,35
576,419	3338,04
576,837	7494,83
577,256	9847,07
577,675	9964,1
578,093	4943,65
578,512	2649,93
578,93	1542,85
579,349	1039,64
579,767	756,43
580,185	658,13
580,604	1154,32
581,022	1985,21
581,44	2266,08
581,858	2308,21
582,276	4051,91
582,694	5634,11
583,112	6266,05
583,53	4400,65
583,948	3033,77
584,366	2720,14
584,784	4761,09
585,201	53572,96
585,619	62881,27
586,037	62885,95
586,454	62881,27
586,872	62914,04
587,289	62881,27
587,707	57558,89
588,124	43663,13
588,541	62853,18
588,958	62846,16
589,376	62857,87
589,793	62885,95
590,21	34794,84
590,627	20035,42
591,044	14273,03
591,461	10247,3
591,878	6497,77
592,294	4470,86
592,711	3525,29
593,128	2649,93
593,545	2355,02
593,961	3078,24
594,378	24566,7
594,794	62867,23
595,211	62871,91
595,627	62801,69
596,043	62916,38
596,46	62944,47
596,876	34254,18
597,292	21837,64
597,708	35639,78
598,124	50417,92
598,54	55201,97
598,956	45051,07
599,372	24194,56
599,788	13950,03
600,204	8559,78
600,62	5161,32
601,035	2984,62
601,451	1875,21
601,867	1397,74
602,282	1346,25
602,698	2530,56
603,113	24454,36
603,529	50141,74
603,944	57163,34
604,359	50729,21
604,774	26975,11
605,19	13718,32
605,605	7752,29
606,02	4906,2
606,435	3373,15
606,85	3246,76
607,265	16353,76
607,68	62902,34
608,094	62860,21
608,509	62862,55
608,924	62839,14
609,338	62829,78
609,753	62892,97
610,168	62904,68
610,582	62904,68
610,997	62888,29
611,411	62804,03
611,825	60669,47
612,24	30764,44
612,654	18521,1
613,068	14556,23
613,482	14420,48
613,896	18890,9
614,31	62799,35
614,724	62757,22
615,138	62724,46
615,552	62846,16
615,966	62834,46
616,379	62888,29
616,793	62871,91
617,207	62818,08
617,62	62883,61
618,034	62895,31
618,447	36004,9
618,861	19906,7
619,274	12356,13
619,687	7134,39
620,101	3850,62
620,514	2799,72
620,927	2362,04
621,34	3857,64
621,753	35850,42
622,166	62904,68
622,579	62848,5
622,992	62888,29
623,405	61577,59
623,817	31951,09
624,23	17217,42
624,643	10315,18
625,055	6450,96
625,468	3836,58
625,88	3225,7
626,293	6266,05
626,705	58303,18
627,118	62869,57
627,53	62890,63
627,942	62937,44
628,354	62857,87
628,766	59169,18
629,179	28416,88
629,591	17184,65
630,003	10743,5
630,414	20962,28
630,826	55321,34
631,238	62827,44
631,65	62890,63
632,061	49252,33
632,473	29554,38
632,885	19141,34
633,296	49633,84
633,708	62970,21
634,119	62878,93
634,53	62855,53
634,942	62909,36
635,353	62907,02
635,764	62892,97
636,175	38134,79
636,586	23738,15
636,998	13084,03
637,408	7761,66
637,819	8381,9
638,23	58005,94
638,641	62897,66
639,052	62916,38
639,463	62923,4
639,873	62841,48
640,284	62885,95
640,694	62871,91
641,105	62895,31
641,515	62892,97
641,926	62857,87
642,336	62892,97
642,746	62904,68
643,157	62846,16
643,567	39211,43
643,977	18125,55
644,387	8030,82
644,797	4491,93
645,207	2954,19
645,617	2474,39
646,026	2043,73
646,436	1690,31
646,846	1437,53
647,256	1479,66
647,665	1341,57
648,075	1439,87
648,484	1517,11
648,894	1685,62
649,303	1933,72
649,713	2680,35
650,122	5421,12
650,531	54984,3
650,94	62935,1
651,349	62885,95
651,758	62848,5
652,167	62895,31
652,576	62864,89
652,985	62862,55
653,394	62883,61
653,803	62911,7
654,212	62911,7
654,62	62897,66
655,029	62190,81
655,437	34296,31
655,846	19010,27
656,254	12260,16
656,663	7855,28
657,071	4625,34
657,479	2792,7
657,888	1868,19
658,296	1563,92
658,704	1376,67
659,112	1842,44
659,52	5128,55
659,928	48962,11
660,336	62860,21
660,744	62836,8
661,152	62890,63
661,559	62876,59
661,967	41147,06
662,375	22670,87
662,782	13982,8
663,19	8529,35
663,597	4847,69
664,005	2287,14
664,412	1580,3
664,819	1161,34
665,226	1203,47
665,634	1470,3
666,041	1786,27
666,448	1924,36
666,855	2057,77
667,262	3668,06
667,669	39396,34
668,075	62832,12
668,482	62965,53
668,889	62885,95
669,296	62857,87
669,702	62963,19
670,109	59791,76
670,515	31445,54
670,922	21390,59
671,328	17861,07
671,734	56526,72
672,141	62885,95
672,547	62909,36
672,953	62895,31
673,359	62928,08
673,765	49924,07
674,171	25577,81
674,577	15911,4
674,983	10425,18
675,389	5830,71
675,795	2626,52
676,201	1491,36
676,606	920,27
677,012	796,22
677,417	557,49
677,823	587,91
678,228	466,21
678,634	517,7
679,039	414,71
679,444	435,78
679,849	304,71
680,255	328,11
680,66	339,82
681,065	433,44
681,47	379,61
681,875	309,39
682,28	407,69
682,684	302,37
683,089	353,86
683,494	311,73
683,899	339,82
684,303	365,56
684,708	367,9
685,112	215,77
685,517	250,88
685,921	424,08
686,325	309,39
686,729	269,6
687,134	431,1
687,538	440,46
687,942	484,93
688,346	388,97
688,75	468,55
689,154	412,37
689,558	454,5
689,961	393,65
690,365	541,1
690,769	515,36
691,173	721,32
691,576	777,5
691,98	1311,14
692,383	3178,89
692,786	35569,56
693,19	62958,51
693,593	62916,38
693,996	62885,95
694,399	62923,4
694,803	62909,36
695,206	43302,69
695,609	24428,61
696,012	16416,96
696,414	11022,02
696,817	6200,52
697,22	2862,91
697,623	1603,71
698,025	1072,4
698,428	868,78
698,831	751,75
699,233	735,37
699,636	728,35
700,038	723,66
700,44	885,16
700,842	1084,11
701,245	1210,5
701,647	1699,67
702,049	3087,61
702,451	11174,16
702,853	36377,04
703,255	62895,31
703,657	62904,68
704,058	62848,5
704,46	62911,7
704,862	62885,95
705,264	62925,74
705,665	62892,97
706,067	54263,42
706,468	39735,71
706,869	26570,2
707,271	13755,77
707,672	6472,02
708,073	3251,44
708,474	1903,29
708,876	1294,76
709,277	934,31
709,678	807,92
710,079	583,23
710,479	531,74
710,88	489,61
711,281	384,29
711,682	381,95
712,082	503,65
712,483	449,82
712,883	442,8
713,284	360,88
713,684	257,9
714,085	290,67
714,485	374,92
714,885	353,86
715,285	489,61
715,686	421,74
716,086	398,33
716,486	573,87
716,886	1245,6
717,285	10600,73
717,685	29512,25
718,085	39721,67
718,485	38986,74
718,884	22818,32
719,284	14074,08
719,684	8587,86
720,083	5500,7
720,483	3897,43
720,882	2694,4
721,281	1753,5
721,68	896,86
722,08	796,22
722,479	639,41
722,878	641,75
723,277	929,63
723,676	1390,72
724,075	7190,56
724,474	56559,48
724,872	62878,93
725,271	62855,53
725,67	62832,12
726,068	62918,72
726,467	60089,01
726,865	34612,28
727,264	21217,4
727,662	15366,06
728,061	10689,67
728,459	6209,88
728,857	3108,67
729,255	1313,48
729,653	831,33
730,051	557,49
730,449	494,29
730,847	360,88
731,245	405,35
731,643	309,39
732,041	323,43
732,438	262,58
732,836	171,3
733,233	105,76
733,631	166,62
734,028	290,67
734,426	246,2
734,823	278,96
735,22	302,37
735,617	290,67
736,015	80,02
736,412	199,38
736,809	168,96
737,206	199,38
737,603	154,91
737,999	204,07
738,396	73
738,793	68,31
739,19	63,63
739,586	173,64
739,983	47,25
740,379	164,28
740,776	185,34
741,172	183
741,568	267,26
741,965	197,04
742,361	197,04
742,757	314,07
743,153	452,16
743,549	3831,9
743,945	23096,85
744,341	38581,83
744,737	44980,85
745,133	34371,21
745,528	19752,22
745,924	12152,5
