Data from Subt10__8__15-54-58-255.txt Node

Date: Thu Apr 21 15:54:58 CEST 2022
User: jeppe
Spectrometer: FLMS05814
Trigger mode: 0
Integration Time (sec): 1,000000E-1
Scans to average: 1
Electric dark correction enabled: true
Nonlinearity correction enabled: false
Boxcar width: 0
XAxis mode: Wavelengths
Number of Pixels in Spectrum: 2048
>>>>>Begin Spectral Data<<<<<
188,012	-6,14
188,47	-6,14
188,927	-6,14
189,385	-34,23
189,842	-78,7
190,3	35,99
190,757	-38,91
191,215	106,2
191,672	14,92
192,129	-10,82
192,586	47,69
193,044	33,65
193,501	-38,91
193,958	73,43
194,415	7,9
194,872	28,96
195,329	-52,95
195,787	-55,3
196,244	-3,8
196,7	-74,02
197,157	-74,02
197,614	28,96
198,071	-13,17
198,528	59,39
198,985	71,09
199,441	-13,17
199,898	85,14
200,355	-52,95
200,812	19,6
201,268	134,29
201,725	50,03
202,181	99,18
202,638	78,12
203,094	0,88
203,551	127,27
204,007	35,99
204,463	64,07
204,92	54,71
205,376	-17,85
205,832	-52,95
206,288	52,37
206,744	96,84
207,201	66,41
207,657	24,28
208,113	61,73
208,569	-20,19
209,025	61,73
209,481	131,95
209,937	73,43
210,392	7,9
210,848	5,56
211,304	35,99
211,76	-8,48
212,215	5,56
212,671	-3,8
213,127	64,07
213,582	19,6
214,038	127,27
214,494	78,12
214,949	101,52
215,404	143,65
215,86	89,82
216,315	21,94
216,771	64,07
217,226	50,03
217,681	38,33
218,136	-6,14
218,592	157,69
219,047	113,22
219,502	14,92
219,957	28,96
220,412	-85,72
220,867	99,18
221,322	38,33
221,777	92,16
222,232	103,86
222,687	45,35
223,142	7,9
223,596	5,56
224,051	188,12
224,506	113,22
224,96	176,42
225,415	54,71
225,87	129,61
226,324	94,5
226,779	-45,93
227,233	7,9
227,688	17,26
228,142	33,65
228,597	0,88
229,051	131,95
229,505	68,75
229,959	129,61
230,414	129,61
230,868	103,86
231,322	28,96
231,776	33,65
232,23	127,27
232,684	64,07
233,138	33,65
233,592	-13,17
234,046	-15,51
234,5	3,22
234,954	78,12
235,408	181,1
235,861	50,03
236,315	-43,59
236,769	3,22
237,222	61,73
237,676	3,22
238,13	33,65
238,583	87,48
239,037	-34,23
239,49	26,62
239,944	40,67
240,397	106,2
240,85	26,62
241,304	176,42
241,757	35,99
242,21	99,18
242,663	110,88
243,117	-8,48
243,57	-17,85
244,023	47,69
244,476	12,58
244,929	110,88
245,382	66,41
245,835	127,27
246,288	127,27
246,741	85,14
247,193	3,22
247,646	-17,85
248,099	96,84
248,552	3,22
249,004	10,24
249,457	26,62
249,909	61,73
250,362	85,14
250,814	117,9
251,267	57,05
251,719	80,46
252,172	82,8
252,624	5,56
253,076	101,52
253,529	80,46
253,981	-34,23
254,433	50,03
254,885	7,9
255,337	94,5
255,79	96,84
256,242	120,25
256,694	85,14
257,146	21,94
257,598	80,46
258,049	12,58
258,501	-13,17
258,953	103,86
259,405	28,96
259,857	115,56
260,308	28,96
260,76	-123,17
261,212	89,82
261,663	-69,34
262,115	129,61
262,566	-50,61
263,018	50,03
263,469	54,71
263,92	124,93
264,372	103,86
264,823	101,52
265,274	17,26
265,726	-3,8
266,177	127,27
266,628	47,69
267,079	-31,89
267,53	120,25
267,981	-24,87
268,432	59,39
268,883	80,46
269,334	26,62
269,785	40,67
270,236	19,6
270,687	31,3
271,137	73,43
271,588	24,28
272,039	43,01
272,489	141,31
272,94	45,35
273,391	10,24
273,841	-1,46
274,292	204,5
274,742	57,05
275,192	89,82
275,643	-88,06
276,093	-20,19
276,543	40,67
276,994	85,14
277,444	-67
277,894	45,35
278,344	31,3
278,794	110,88
279,244	-17,85
279,694	33,65
280,144	71,09
280,594	33,65
281,044	47,69
281,494	5,56
281,944	12,58
282,394	-20,19
282,843	59,39
283,293	99,18
283,743	45,35
284,192	-59,98
284,642	28,96
285,091	237,27
285,541	87,48
285,99	-20,19
286,44	-67
286,889	89,82
287,338	61,73
287,788	-13,17
288,237	12,58
288,686	122,59
289,135	50,03
289,584	106,2
290,034	157,69
290,483	52,37
290,932	5,56
291,381	122,59
291,83	17,26
292,278	-15,51
292,727	73,43
293,176	-62,32
293,625	127,27
294,074	87,48
294,522	80,46
294,971	99,18
295,42	124,93
295,868	101,52
296,317	160,03
296,765	17,26
297,214	92,16
297,662	96,84
298,11	54,71
298,559	71,09
299,007	-38,91
299,455	52,37
299,903	17,26
300,352	31,3
300,8	148,33
301,248	106,2
301,696	120,25
302,144	110,88
302,592	12,58
303,04	28,96
303,488	-81,04
303,936	28,96
304,383	115,56
304,831	94,5
305,279	61,73
305,727	120,25
306,174	99,18
306,622	94,5
307,069	155,35
307,517	120,25
307,964	-8,48
308,412	35,99
308,859	57,05
309,306	120,25
309,754	148,33
310,201	150,67
310,648	92,16
311,096	160,03
311,543	52,37
311,99	155,35
312,437	89,82
312,884	78,12
313,331	131,95
313,778	176,42
314,225	73,43
314,672	195,14
315,118	71,09
315,565	94,5
316,012	33,65
316,459	80,46
316,905	110,88
317,352	92,16
317,798	57,05
318,245	129,61
318,691	96,84
319,138	110,88
319,584	127,27
320,031	19,6
320,477	127,27
320,923	199,82
321,37	174,08
321,816	110,88
322,262	164,72
322,708	157,69
323,154	52,37
323,6	138,97
324,046	141,31
324,492	115,56
324,938	134,29
325,384	171,74
325,83	153,01
326,276	122,59
326,721	134,29
327,167	134,29
327,613	127,27
328,058	99,18
328,504	183,44
328,949	68,75
329,395	204,5
329,84	106,2
330,286	120,25
330,731	96,84
331,177	220,89
331,622	176,42
332,067	138,97
332,512	92,16
332,957	124,93
333,403	68,75
333,848	96,84
334,293	35,99
334,738	75,77
335,183	92,16
335,628	164,72
336,072	143,65
336,517	192,8
336,962	99,18
337,407	192,8
337,852	199,82
338,296	26,62
338,741	171,74
339,185	223,23
339,63	138,97
340,074	5,56
340,519	131,95
340,963	199,82
341,408	94,5
341,852	150,67
342,296	129,61
342,741	169,4
343,185	183,44
343,629	33,65
344,073	136,63
344,517	120,25
344,961	108,54
345,405	7,9
345,849	73,43
346,293	176,42
346,737	122,59
347,181	96,84
347,624	153,01
348,068	73,43
348,512	21,94
348,955	141,31
349,399	160,03
349,843	110,88
350,286	199,82
350,73	216,21
351,173	155,35
351,617	131,95
352,06	99,18
352,503	122,59
352,946	117,9
353,39	190,46
353,833	33,65
354,276	87,48
354,719	225,57
355,162	199,82
355,605	61,73
356,048	256
356,491	167,06
356,934	164,72
357,377	197,48
357,82	92,16
358,262	234,93
358,705	148,33
359,148	148,33
359,59	206,84
360,033	195,14
360,475	19,6
360,918	143,65
361,36	87,48
361,803	174,08
362,245	127,27
362,688	33,65
363,13	73,43
363,572	202,16
364,014	3,22
364,456	-6,14
364,899	124,93
365,341	134,29
365,783	199,82
366,225	14,92
366,667	28,96
367,108	129,61
367,55	66,41
367,992	99,18
368,434	106,2
368,876	197,48
369,317	216,21
369,759	192,8
370,201	190,46
370,642	120,25
371,084	160,03
371,525	183,44
371,966	227,91
372,408	181,1
372,849	110,88
373,29	141,31
373,732	50,03
374,173	108,54
374,614	73,43
375,055	113,22
375,496	75,77
375,937	129,61
376,378	129,61
376,819	131,95
377,26	-41,25
377,701	230,25
378,142	267,7
378,583	85,14
379,023	164,72
379,464	40,67
379,905	115,56
380,345	50,03
380,786	117,9
381,226	195,14
381,667	202,16
382,107	148,33
382,548	115,56
382,988	251,32
383,428	113,22
383,868	12,58
384,309	96,84
384,749	106,2
385,189	155,35
385,629	103,86
386,069	157,69
386,509	113,22
386,949	21,94
387,389	129,61
387,829	117,9
388,268	43,01
388,708	57,05
389,148	54,71
389,588	50,03
390,027	59,39
390,467	54,71
390,906	117,9
391,346	17,26
391,785	209,19
392,225	80,46
392,664	153,01
393,103	17,26
393,543	141,31
393,982	94,5
394,421	115,56
394,86	138,97
395,299	274,72
395,738	333,23
396,177	464,3
396,616	433,88
397,055	473,67
397,494	464,3
397,933	681,97
398,372	382,39
398,81	279,4
399,249	241,95
399,688	124,93
400,126	103,86
400,565	241,95
401,004	178,76
401,442	52,37
401,88	66,41
402,319	117,9
402,757	43,01
403,195	71,09
403,634	129,61
404,072	94,5
404,51	101,52
404,948	129,61
405,386	17,26
405,824	35,99
406,262	99,18
406,7	113,22
407,138	47,69
407,576	52,37
408,014	241,95
408,452	358,98
408,889	450,26
409,327	361,32
409,765	129,61
410,202	131,95
410,64	185,78
411,077	145,99
411,515	195,14
411,952	342,6
412,389	291,1
412,827	277,06
413,264	106,2
413,701	99,18
414,138	59,39
414,575	127,27
415,013	237,27
415,45	136,63
415,887	17,26
416,324	87,48
416,76	124,93
417,197	75,77
417,634	153,01
418,071	120,25
418,508	71,09
418,944	50,03
419,381	136,63
419,818	366
420,254	340,26
420,691	358,98
421,127	223,23
421,563	241,95
422	164,72
422,436	124,93
422,872	87,48
423,309	71,09
423,745	101,52
424,181	-24,87
424,617	106,2
425,053	143,65
425,489	82,8
425,925	38,33
426,361	143,65
426,797	87,48
427,233	150,67
427,668	141,31
428,104	117,9
428,54	33,65
428,975	78,12
429,411	89,82
429,847	160,03
430,282	26,62
430,717	92,16
431,153	85,14
431,588	35,99
432,024	108,54
432,459	66,41
432,894	66,41
433,329	136,63
433,764	113,22
434,199	124,93
434,634	160,03
435,069	155,35
435,504	124,93
435,939	19,6
436,374	43,01
436,809	0,88
437,244	-20,19
437,678	-15,51
438,113	52,37
438,548	110,88
438,982	141,31
439,417	211,53
439,851	150,67
440,286	96,84
440,72	-17,85
441,154	57,05
441,589	40,67
442,023	10,24
442,457	59,39
442,891	75,77
443,326	85,14
443,76	26,62
444,194	80,46
444,628	89,82
445,062	43,01
445,495	122,59
445,929	103,86
446,363	50,03
446,797	64,07
447,23	148,33
447,664	99,18
448,098	188,12
448,531	-1,46
448,965	85,14
449,398	87,48
449,832	138,97
450,265	586,01
450,698	1124,33
451,132	1330,3
451,565	1011,99
451,998	508,77
452,431	480,69
452,864	600,05
453,297	684,31
453,73	717,08
454,163	454,94
454,596	120,25
455,029	52,37
455,462	52,37
455,895	96,84
456,327	-24,87
456,76	110,88
457,193	-6,14
457,625	241,95
458,058	117,9
458,49	548,56
458,923	686,65
459,355	904,32
459,787	548,56
460,22	260,68
460,652	232,59
461,084	145,99
461,516	157,69
461,948	274,72
462,381	1264,77
462,813	4099,16
463,245	5686,04
463,676	5229,63
464,108	2942,93
464,54	1320,94
464,972	665,59
465,404	314,51
465,835	270,04
466,267	293,44
466,699	375,36
467,13	2762,71
467,562	8321,48
467,993	12342,52
468,424	10346,05
468,856	5281,13
469,287	2650,36
469,718	1901,39
470,15	2161,19
470,581	2303,96
471,012	1845,22
471,443	880,92
471,874	614,1
472,305	281,74
472,736	183,44
473,167	211,53
473,598	1269,45
474,028	2329,71
474,459	2964
474,89	1983,31
475,32	892,62
475,751	419,83
476,182	305,15
476,612	134,29
477,043	28,96
477,473	59,39
477,903	66,41
478,334	110,88
478,764	176,42
479,194	141,31
479,624	298,13
480,054	468,98
480,484	693,68
480,914	2736,96
481,344	4667,91
481,774	5393,47
482,204	3422,74
482,634	1667,34
483,064	1653,3
483,494	2451,42
483,923	2837,61
484,353	2605,89
484,782	2411,63
485,212	2694,83
485,642	2128,42
486,071	1255,4
486,5	930,07
486,93	1112,63
487,359	967,52
487,788	508,77
488,217	328,55
488,647	197,48
489,076	28,96
489,505	101,52
489,934	75,77
490,363	57,05
490,792	145,99
491,221	206,84
491,649	607,08
492,078	2018,42
492,507	3947,02
492,936	5358,36
493,364	4794,29
493,793	2910,16
494,221	1323,28
494,65	724,1
495,078	394,09
495,507	174,08
495,935	117,9
496,363	14,92
496,791	31,3
497,22	94,5
497,648	106,2
498,076	78,12
498,504	237,27
498,932	68,75
499,36	178,76
499,788	10,24
500,216	12,58
500,643	85,14
501,071	124,93
501,499	57,05
501,927	127,27
502,354	99,18
502,782	192,8
503,209	415,15
503,637	618,78
504,064	686,65
504,491	298,13
504,919	307,49
505,346	73,43
505,773	127,27
506,2	138,97
506,628	99,18
507,055	26,62
507,482	131,95
507,909	96,84
508,335	-3,8
508,762	35,99
509,189	-1,46
509,616	71,09
510,043	38,33
510,469	7,9
510,896	120,25
511,323	-22,53
511,749	35,99
512,176	52,37
512,602	21,94
513,028	117,9
513,455	143,65
513,881	43,01
514,307	45,35
514,733	145,99
515,16	59,39
515,586	5,56
516,012	115,56
516,438	115,56
516,864	138,97
517,29	157,69
517,715	176,42
518,141	167,06
518,567	160,03
518,993	169,4
519,418	96,84
519,844	71,09
520,269	101,52
520,695	71,09
521,12	117,9
521,546	31,3
521,971	59,39
522,396	59,39
522,822	110,88
523,247	129,61
523,672	3,22
524,097	223,23
524,522	35,99
524,947	110,88
525,372	129,61
525,797	108,54
526,222	-20,19
526,647	169,4
527,071	169,4
527,496	14,92
527,921	190,46
528,345	120,25
528,77	122,59
529,194	164,72
529,619	-1,46
530,043	92,16
530,468	47,69
530,892	113,22
531,316	26,62
531,74	31,3
532,164	0,88
532,589	28,96
533,013	61,73
533,437	47,69
533,861	52,37
534,284	103,86
534,708	52,37
535,132	45,35
535,556	117,9
535,98	21,94
536,403	108,54
536,827	120,25
537,25	129,61
537,674	78,12
538,097	24,28
538,521	120,25
538,944	80,46
539,367	153,01
539,791	258,34
540,214	396,43
540,637	150,67
541,06	106,2
541,483	94,5
541,906	31,3
542,329	-81,04
542,752	0,88
543,175	-3,8
543,598	-3,8
544,02	-59,98
544,443	73,43
544,866	-3,8
545,288	-6,14
545,711	68,75
546,133	82,8
546,556	-78,7
546,978	-85,72
547,4	3,22
547,823	24,28
548,245	21,94
548,667	-38,91
549,089	-43,59
549,511	-15,51
549,933	171,74
550,355	26,62
550,777	68,75
551,199	3,22
551,621	-22,53
552,043	38,33
552,465	-10,82
552,886	92,16
553,308	-50,61
553,729	68,75
554,151	10,24
554,572	68,75
554,994	19,6
555,415	162,37
555,837	185,78
556,258	145,99
556,679	225,57
557,1	141,31
557,521	150,67
557,942	216,21
558,363	227,91
558,784	230,25
559,205	220,89
559,626	0,88
560,047	136,63
560,468	28,96
560,888	120,25
561,309	110,88
561,73	108,54
562,15	241,95
562,571	164,72
562,991	113,22
563,412	73,43
563,832	-29,55
564,252	17,26
564,673	21,94
565,093	19,6
565,513	99,18
565,933	26,62
566,353	87,48
566,773	89,82
567,193	103,86
567,613	54,71
568,033	33,65
568,452	145,99
568,872	101,52
569,292	103,86
569,711	117,9
570,131	162,37
570,551	373,02
570,97	230,25
571,389	192,8
571,809	251,32
572,228	286,42
572,647	286,42
573,067	213,87
573,486	199,82
573,905	-45,93
574,324	78,12
574,743	17,26
575,162	141,31
575,581	101,52
576	94,5
576,419	195,14
576,837	38,33
577,256	94,5
577,675	164,72
578,093	28,96
578,512	43,01
578,93	57,05
579,349	122,59
579,767	45,35
580,185	19,6
580,604	50,03
581,022	38,33
581,44	28,96
581,858	169,4
582,276	188,12
582,694	499,41
583,112	773,25
583,53	904,32
583,948	595,37
584,366	319,19
584,784	99,18
585,201	279,4
585,619	134,29
586,037	87,48
586,454	75,77
586,872	167,06
587,289	85,14
587,707	192,8
588,124	333,23
588,541	506,43
588,958	377,7
589,376	328,55
589,793	466,64
590,21	578,99
590,627	628,14
591,044	396,43
591,461	281,74
591,878	195,14
592,294	174,08
592,711	192,8
593,128	157,69
593,545	408,13
593,961	600,05
594,378	752,19
594,794	508,77
595,211	316,85
595,627	162,37
596,043	202,16
596,46	167,06
596,876	52,37
597,292	50,03
597,708	103,86
598,124	68,75
598,54	61,73
598,956	153,01
599,372	89,82
599,788	141,31
600,204	178,76
600,62	7,9
601,035	237,27
601,451	185,78
601,867	155,35
602,282	33,65
602,698	66,41
603,113	127,27
603,529	94,5
603,944	195,14
604,359	-10,82
604,774	127,27
605,19	73,43
605,605	89,82
606,02	73,43
606,435	129,61
606,85	64,07
607,265	110,88
607,68	50,03
608,094	40,67
608,509	64,07
608,924	-3,8
609,338	17,26
609,753	115,56
610,168	78,12
610,582	96,84
610,997	87,48
611,411	68,75
611,825	73,43
612,24	113,22
612,654	136,63
613,068	64,07
613,482	78,12
613,896	14,92
614,31	-8,48
614,724	26,62
615,138	-85,72
615,552	38,33
615,966	73,43
616,379	197,48
616,793	328,55
617,207	389,41
617,62	478,35
618,034	583,67
618,447	1058,8
618,861	1545,63
619,274	1473,07
619,687	1119,65
620,101	918,37
620,514	745,17
620,927	703,04
621,34	490,05
621,753	410,47
622,166	286,42
622,579	171,74
622,992	178,76
623,405	129,61
623,817	75,77
624,23	3,22
624,643	-17,85
625,055	108,54
625,468	26,62
625,88	75,77
626,293	50,03
626,705	150,67
627,118	288,76
627,53	248,97
627,942	253,66
628,354	192,8
628,766	136,63
629,179	225,57
629,591	227,91
630,003	192,8
630,414	143,65
630,826	251,32
631,238	43,01
631,65	220,89
632,061	878,58
632,473	1243,7
632,885	1253,06
633,296	958,16
633,708	719,42
634,119	445,58
634,53	323,87
634,942	225,57
635,353	171,74
635,764	73,43
636,175	106,2
636,586	3,22
636,998	131,95
637,408	-57,64
637,819	-36,57
638,23	-45,93
638,641	87,48
639,052	28,96
639,463	7,9
639,873	-22,53
640,284	47,69
640,694	40,67
641,105	71,09
641,515	87,48
641,926	26,62
642,336	108,54
642,746	99,18
643,157	153,01
643,567	64,07
643,977	115,56
644,387	54,71
644,797	68,75
645,207	45,35
645,617	188,12
646,026	96,84
646,436	99,18
646,846	134,29
647,256	600,05
647,665	1002,63
648,075	1208,59
648,484	972,2
648,894	775,6
649,303	637,5
649,713	689
650,122	712,4
650,531	644,53
650,94	754,53
651,349	600,05
651,758	377,7
652,167	291,1
652,576	227,91
652,985	190,46
653,394	202,16
653,803	277,06
654,212	239,61
654,62	288,76
655,029	258,34
655,437	396,43
655,846	321,53
656,254	1290,51
656,663	3085,7
657,071	4468,96
657,479	4365,98
657,888	2671,43
658,296	1657,98
658,704	892,62
659,112	714,74
659,52	536,86
659,928	553,24
660,336	431,54
660,744	380,04
661,152	361,32
661,559	185,78
661,967	244,29
662,375	174,08
662,782	73,43
663,19	64,07
663,597	246,63
664,005	263,02
664,412	344,94
664,819	239,61
665,226	82,8
665,634	68,75
666,041	131,95
666,448	43,01
666,855	443,24
667,262	953,48
667,669	1213,28
668,075	1105,61
668,482	925,39
668,889	630,48
669,296	358,98
669,702	335,57
670,109	202,16
670,515	167,06
670,922	127,27
671,328	131,95
671,734	43,01
672,141	26,62
672,547	106,2
672,953	742,83
673,359	1250,72
673,765	1543,29
674,171	1182,85
674,577	712,4
674,983	548,56
675,389	387,07
675,795	136,63
676,201	232,59
676,606	150,67
677,012	153,01
677,417	85,14
677,823	181,1
678,228	209,19
678,634	239,61
679,039	246,63
679,444	220,89
679,849	12,58
680,255	52,37
680,66	-1,46
681,065	106,2
681,47	153,01
681,875	68,75
682,28	54,71
682,684	197,48
683,089	520,48
683,494	791,98
683,899	667,93
684,303	492,39
684,708	483,03
685,112	621,12
685,517	653,89
685,921	733,47
686,325	457,28
686,729	401,11
687,134	651,55
687,538	988,58
687,942	1320,94
688,346	2002,04
688,75	2587,17
689,154	2905,48
689,558	2072,25
689,961	1344,35
690,365	864,54
690,769	454,94
691,173	497,07
691,576	260,68
691,98	302,81
692,383	171,74
692,786	204,5
693,19	328,55
693,593	478,35
693,996	267,7
694,399	344,94
694,803	279,4
695,206	136,63
695,609	89,82
696,012	50,03
696,414	-20,19
696,817	176,42
697,22	92,16
697,623	209,19
698,025	368,34
698,428	515,8
698,831	536,86
699,233	398,77
699,636	335,57
700,038	108,54
700,44	267,7
700,842	167,06
701,245	64,07
701,647	174,08
702,049	87,48
702,451	171,74
702,853	120,25
703,255	92,16
703,657	129,61
704,058	75,77
704,46	148,33
704,862	85,14
705,264	181,1
705,665	167,06
706,067	108,54
706,468	127,27
706,869	61,73
707,271	106,2
707,672	28,96
708,073	87,48
708,474	78,12
708,876	82,8
709,277	19,6
709,678	71,09
710,079	-71,68
710,479	28,96
710,88	33,65
711,281	47,69
711,682	307,49
712,082	1690,74
712,483	2584,83
712,883	3411,04
713,284	2449,08
713,684	1510,52
714,085	953,48
714,485	749,85
714,885	445,58
715,285	419,83
715,686	349,62
716,086	138,97
716,486	136,63
716,886	7,9
717,285	85,14
717,685	101,52
718,085	64,07
718,485	-15,51
718,884	85,14
719,284	28,96
719,684	-27,21
720,083	54,71
720,483	68,75
720,882	38,33
721,281	85,14
721,68	43,01
722,08	75,77
722,479	101,52
722,878	80,46
723,277	-41,25
723,676	12,58
724,075	52,37
724,474	78,12
724,872	26,62
725,271	106,2
725,67	117,9
726,068	326,21
726,467	499,41
726,865	520,48
727,264	490,05
727,662	377,7
728,061	373,02
728,459	625,8
728,857	967,52
729,255	1126,68
729,653	937,09
730,051	625,8
730,449	401,11
730,847	319,19
731,245	298,13
731,643	394,09
732,041	529,84
732,438	745,17
732,836	815,38
733,233	518,14
733,631	721,76
734,028	686,65
734,426	700,7
734,823	539,2
735,22	412,81
735,617	366
736,015	319,19
736,412	202,16
736,809	195,14
737,206	253,66
737,603	103,86
737,999	150,67
738,396	143,65
738,793	337,91
739,19	614,1
739,586	1058,8
739,983	1203,91
740,379	1393,5
740,776	1072,84
741,172	630,48
741,568	562,61
741,965	335,57
742,361	164,72
742,757	223,23
743,153	234,93
743,549	202,16
743,945	143,65
744,341	124,93
744,737	183,44
745,133	155,35
745,528	171,74
745,924	206,84
746,32	155,35
746,715	106,2
747,111	185,78
747,506	300,47
747,901	426,86
748,297	433,88
748,692	295,79
749,087	218,55
749,482	295,79
749,877	153,01
750,272	377,7
750,667	232,59
751,062	227,91
751,457	246,63
751,852	153,01
752,247	197,48
752,641	66,41
753,036	7,9
753,43	-45,93
753,825	40,67
754,219	94,5
754,614	89,82
755,008	103,86
755,402	47,69
755,796	223,23
756,19	117,9
756,584	153,01
756,978	94,5
757,372	89,82
757,766	124,93
758,16	265,36
758,554	756,87
758,948	1297,53
759,341	1496,48
759,735	1105,61
760,128	749,85
760,522	417,49
760,915	373,02
761,308	176,42
761,702	305,15
762,095	206,84
762,488	185,78
762,881	-1,46
763,274	127,27
763,667	190,46
764,06	983,9
764,453	2671,43
764,846	3656,79
765,239	3907,23
765,631	2493,55
766,024	1526,91
766,416	1213,28
766,809	710,06
767,201	719,42
767,594	536,86
767,986	398,77
768,378	316,85
768,77	127,27
769,163	87,48
